 Al Density=2.6989 Thickness=0.8 microns
 Photon Energy (eV), Transmission
    10.000      0.00000    
    11.000      1.45322E-37
    12.000      2.63978E-32
    13.000      1.13456E-27
    14.000      2.80190E-22
    15.000      1.23838E-08
    16.000      1.36016E-03
    17.000      2.08624E-02
    18.000      5.38456E-02
    19.000      9.44706E-02
    20.000      0.14815    
    21.000      0.16442    
    22.000      0.16845    
    23.000      0.17233    
    24.000      0.16513    
    25.000      0.15573    
    26.000      0.14899    
    27.000      0.14722    
    28.000      0.14551    
    29.000      0.14388    
    30.000      0.14231    
    31.000      0.14080    
    32.000      0.13934    
    33.000      0.13917    
    34.000      0.14161    
    35.000      0.14400    
    36.000      0.14635    
    37.000      0.14865    
    38.000      0.15090    
    39.000      0.15311    
    40.000      0.15528    
    41.000      0.15767    
    42.000      0.16192    
    43.000      0.16620    
    44.000      0.17043    
    45.000      0.17461    
    46.000      0.17873    
    47.000      0.18281    
    48.000      0.19052    
    49.000      0.20317    
    50.000      0.21638    
    51.000      0.22960    
    52.000      0.24281    
    53.000      0.25597    
    54.000      0.26736    
    55.000      0.27757    
    56.000      0.28768    
    57.000      0.29767    
    58.000      0.30755    
    59.000      0.31731    
    60.000      0.32498    
    61.000      0.33066    
    62.000      0.33588    
    63.000      0.34103    
    64.000      0.33811    
    65.000      0.33138    
    66.000      0.32448    
    67.000      0.31770    
    68.000      0.31163    
    69.000      0.30630    
    70.000      0.30114    
    71.000      0.29606    
    72.000      0.29107    
    73.000      6.66770E-07
    74.000      4.10922E-07
    75.000      2.50830E-07
    76.000      1.51633E-07
    77.000      9.07724E-08
    78.000      5.38029E-08
    79.000      3.15798E-08
    80.000      1.83521E-08
    81.000      1.08018E-08
    82.000      6.45996E-09
    83.000      3.84143E-09
    84.000      2.26653E-09
    85.000      1.32679E-09
    86.000      7.92422E-10
    87.000      5.51397E-10
    88.000      4.51339E-10
    89.000      3.89009E-10
    90.000      3.35507E-10
    91.000      2.89553E-10
    92.000      2.50048E-10
    93.000      2.16069E-10
    94.000      1.86821E-10
    95.000      1.61632E-10
    96.000      1.39921E-10
    97.000      1.21201E-10
    98.000      1.05042E-10
    99.000      9.10884E-11
    100.00      7.90342E-11
    101.00      6.86134E-11
    102.00      5.95950E-11
    103.00      5.21904E-11
    104.00      4.59855E-11
    105.00      4.17684E-11
    106.00      3.80527E-11
    107.00      3.46897E-11
    108.00      3.16377E-11
    109.00      2.88676E-11
    110.00      2.63521E-11
    111.00      2.40674E-11
    112.00      2.19935E-11
    113.00      2.01075E-11
    114.00      1.83918E-11
    115.00      1.68308E-11
    116.00      1.54100E-11
    117.00      1.41139E-11
    118.00      1.29318E-11
    119.00      1.18547E-11
    120.00      1.08722E-11
    121.00      9.97545E-12
    122.00      9.15659E-12
    123.00      8.40789E-12
    124.00      7.72354E-12
    125.00      8.47311E-12
    126.00      9.61491E-12
    127.00      1.14189E-11
    128.00      1.36618E-11
    129.00      1.63024E-11
    130.00      1.94029E-11
    131.00      2.30340E-11
    132.00      2.72767E-11
    133.00      3.22226E-11
    134.00      3.79748E-11
    135.00      4.46503E-11
    136.00      5.23803E-11
    137.00      6.13118E-11
    138.00      7.16089E-11
    139.00      8.34570E-11
    140.00      9.70625E-11
    141.00      1.12655E-10
    142.00      1.30492E-10
    143.00      1.50855E-10
    144.00      1.74061E-10
    145.00      2.00459E-10
    146.00      2.30433E-10
    147.00      2.64406E-10
    148.00      3.02850E-10
    149.00      3.46285E-10
    150.00      3.95275E-10
    151.00      4.58106E-10
    152.00      5.39950E-10
    153.00      6.34966E-10
    154.00      7.45730E-10
    155.00      8.73852E-10
    156.00      1.02174E-09
    157.00      1.19207E-09
    158.00      1.38786E-09
    159.00      1.61248E-09
    160.00      1.86964E-09
    161.00      2.16350E-09
    162.00      2.49863E-09
    163.00      2.88016E-09
    164.00      3.31370E-09
    165.00      3.80548E-09
    166.00      4.36236E-09
    167.00      4.99189E-09
    168.00      5.70234E-09
    169.00      6.50278E-09
    170.00      7.40310E-09
    171.00      8.41428E-09
    172.00      9.54802E-09
    173.00      1.08174E-08
    174.00      1.22365E-08
    175.00      1.38208E-08
    176.00      1.55869E-08
    177.00      1.77130E-08
    178.00      2.05836E-08
    179.00      2.38693E-08
    180.00      2.84539E-08
    181.00      3.52552E-08
    182.00      4.35166E-08
    183.00      5.35156E-08
    184.00      6.55755E-08
    185.00      8.00680E-08
    186.00      9.74227E-08
    187.00      1.18136E-07
    188.00      1.42779E-07
    189.00      1.72009E-07
    190.00      2.06574E-07
    191.00      2.47316E-07
    192.00      2.95191E-07
    193.00      3.51281E-07
    194.00      4.16823E-07
    195.00      4.93203E-07
    196.00      5.81970E-07
    197.00      6.84851E-07
    198.00      8.03790E-07
    199.00      9.40941E-07
    200.00      1.09870E-06
    201.00      1.27988E-06
    202.00      1.49014E-06
    203.00      1.73071E-06
    204.00      2.00530E-06
    205.00      2.31800E-06
    206.00      2.67330E-06
    207.00      3.07617E-06
    208.00      3.53202E-06
    209.00      4.04676E-06
    210.00      4.62671E-06
    211.00      5.27884E-06
    212.00      6.01049E-06
    213.00      6.82994E-06
    214.00      7.74596E-06
    215.00      8.76826E-06
    216.00      9.90698E-06
    217.00      1.11730E-05
    218.00      1.25783E-05
    219.00      1.41353E-05
    220.00      1.58576E-05
    221.00      1.77596E-05
    222.00      1.97874E-05
    223.00      2.19891E-05
    224.00      2.43993E-05
    225.00      2.69790E-05
    226.00      2.95243E-05
    227.00      3.22722E-05
    228.00      3.52353E-05
    229.00      3.84273E-05
    230.00      4.18621E-05
    231.00      4.55543E-05
    232.00      4.95192E-05
    233.00      5.37727E-05
    234.00      5.83315E-05
    235.00      6.32121E-05
    236.00      6.84328E-05
    237.00      7.40118E-05
    238.00      7.99685E-05
    239.00      8.63225E-05
    240.00      9.30944E-05
    241.00      1.00305E-04
    242.00      1.07975E-04
    243.00      1.16129E-04
    244.00      1.24789E-04
    245.00      1.33981E-04
    246.00      1.43727E-04
    247.00      1.54054E-04
    248.00      1.64987E-04
    249.00      1.76555E-04
    250.00      1.88784E-04
    251.00      2.01702E-04
    252.00      2.15336E-04
    253.00      2.29716E-04
    254.00      2.44874E-04
    255.00      2.60840E-04
    256.00      2.77645E-04
    257.00      2.95325E-04
    258.00      3.13909E-04
    259.00      3.33432E-04
    260.00      3.53930E-04
    261.00      3.75431E-04
    262.00      3.97978E-04
    263.00      4.21603E-04
    264.00      4.46428E-04
    265.00      4.73826E-04
    266.00      5.02561E-04
    267.00      5.32685E-04
    268.00      5.64240E-04
    269.00      6.03421E-04
    270.00      6.46526E-04
    271.00      6.92090E-04
    272.00      7.40212E-04
    273.00      7.91000E-04
    274.00      8.44555E-04
    275.00      9.00985E-04
    276.00      9.60391E-04
    277.00      1.02289E-03
    278.00      1.08857E-03
    279.00      1.15758E-03
    280.00      1.23000E-03
    281.00      1.30597E-03
    282.00      1.38560E-03
    283.00      1.46900E-03
    284.00      1.55630E-03
    285.00      1.64761E-03
    286.00      1.74306E-03
    287.00      1.84277E-03
    288.00      1.94687E-03
    289.00      2.05548E-03
    290.00      2.16872E-03
    291.00      2.28672E-03
    292.00      2.40961E-03
    293.00      2.53750E-03
    294.00      2.67054E-03
    295.00      2.80884E-03
    296.00      2.95253E-03
    297.00      3.10173E-03
    298.00      3.25657E-03
    299.00      3.41721E-03
    300.00      3.58373E-03
    301.00      3.75631E-03
    302.00      3.93503E-03
    303.00      4.12006E-03
    304.00      4.31149E-03
    305.00      4.50946E-03
    306.00      4.71407E-03
    307.00      4.92545E-03
    308.00      5.14374E-03
    309.00      5.36907E-03
    310.00      5.60153E-03
    311.00      5.84129E-03
    312.00      6.08844E-03
    313.00      6.34309E-03
    314.00      6.60534E-03
    315.00      6.87534E-03
    316.00      7.15321E-03
    317.00      7.43904E-03
    318.00      7.73296E-03
    319.00      8.03504E-03
    320.00      8.34542E-03
    321.00      8.66420E-03
    322.00      8.99148E-03
    323.00      9.32737E-03
    324.00      9.67196E-03
    325.00      1.00254E-02
    326.00      1.03876E-02
    327.00      1.07588E-02
    328.00      1.11391E-02
    329.00      1.15286E-02
    330.00      1.19273E-02
    331.00      1.23354E-02
    332.00      1.27529E-02
    333.00      1.31800E-02
    334.00      1.36166E-02
    335.00      1.40629E-02
    336.00      1.45189E-02
    337.00      1.49848E-02
    338.00      1.54604E-02
    339.00      1.59461E-02
    340.00      1.64417E-02
    341.00      1.69475E-02
    342.00      1.74632E-02
    343.00      1.79891E-02
    344.00      1.85252E-02
    345.00      1.90717E-02
    346.00      1.96284E-02
    347.00      2.01955E-02
    348.00      2.07731E-02
    349.00      2.13611E-02
    350.00      2.19596E-02
    351.00      2.25686E-02
    352.00      2.31882E-02
    353.00      2.38184E-02
    354.00      2.44593E-02
    355.00      2.51108E-02
    356.00      2.57729E-02
    357.00      2.64457E-02
    358.00      2.71293E-02
    359.00      2.77715E-02
    360.00      2.84220E-02
    361.00      2.90814E-02
    362.00      2.97498E-02
    363.00      3.04274E-02
    364.00      3.11105E-02
    365.00      3.17880E-02
    366.00      3.24739E-02
    367.00      3.31684E-02
    368.00      3.38714E-02
    369.00      3.45828E-02
    370.00      3.53028E-02
    371.00      3.60311E-02
    372.00      3.67679E-02
    373.00      3.75131E-02
    374.00      3.82667E-02
    375.00      3.90287E-02
    376.00      3.97991E-02
    377.00      4.05777E-02
    378.00      4.13646E-02
    379.00      4.21599E-02
    380.00      4.29634E-02
    381.00      4.37752E-02
    382.00      4.45952E-02
    383.00      4.54233E-02
    384.00      4.62598E-02
    385.00      4.71043E-02
    386.00      4.79569E-02
    387.00      4.88175E-02
    388.00      4.96861E-02
    389.00      5.05625E-02
    390.00      5.14469E-02
    391.00      5.23391E-02
    392.00      5.32392E-02
    393.00      5.41472E-02
    394.00      5.50628E-02
    395.00      5.59863E-02
    396.00      5.69175E-02
    397.00      5.78563E-02
    398.00      5.88027E-02
    399.00      5.97566E-02
    400.00      6.07182E-02
    401.00      6.16870E-02
    402.00      6.26633E-02
    403.00      6.36470E-02
    404.00      6.46380E-02
    405.00      6.56363E-02
    406.00      6.66417E-02
    407.00      6.76543E-02
    408.00      6.86740E-02
    409.00      6.97009E-02
    410.00      7.07346E-02
    411.00      7.17754E-02
    412.00      7.28230E-02
    413.00      7.38775E-02
    414.00      7.49387E-02
    415.00      7.60065E-02
    416.00      7.70811E-02
    417.00      7.81622E-02
    418.00      7.92498E-02
    419.00      8.03439E-02
    420.00      8.14444E-02
    421.00      8.25514E-02
    422.00      8.36645E-02
    423.00      8.47840E-02
    424.00      8.59096E-02
    425.00      8.70413E-02
    426.00      8.81792E-02
    427.00      8.93229E-02
    428.00      9.04727E-02
    429.00      9.16286E-02
    430.00      9.27901E-02
    431.00      9.39575E-02
    432.00      9.51305E-02
    433.00      9.63092E-02
    434.00      9.74934E-02
    435.00      9.87566E-02
    436.00      0.10003    
    437.00      0.10131    
    438.00      0.10259    
    439.00      0.10388    
    440.00      0.10518    
    441.00      0.10648    
    442.00      0.10782    
    443.00      0.10917    
    444.00      0.11053    
    445.00      0.11189    
    446.00      0.11326    
    447.00      0.11463    
    448.00      0.11601    
    449.00      0.11739    
    450.00      0.11878    
    451.00      0.12017    
    452.00      0.12157    
    453.00      0.12298    
    454.00      0.12439    
    455.00      0.12580    
    456.00      0.12722    
    457.00      0.12865    
    458.00      0.13008    
    459.00      0.13152    
    460.00      0.13296    
    461.00      0.13440    
    462.00      0.13585    
    463.00      0.13731    
    464.00      0.13877    
    465.00      0.14023    
    466.00      0.14170    
    467.00      0.14317    
    468.00      0.14465    
    469.00      0.14613    
    470.00      0.14762    
    471.00      0.14911    
    472.00      0.15060    
    473.00      0.15210    
    474.00      0.15360    
    475.00      0.15510    
    476.00      0.15661    
    477.00      0.15812    
    478.00      0.15964    
    479.00      0.16115    
    480.00      0.16268    
    481.00      0.16420    
    482.00      0.16573    
    483.00      0.16726    
    484.00      0.16880    
    485.00      0.17033    
    486.00      0.17187    
    487.00      0.17342    
    488.00      0.17497    
    489.00      0.17652    
    490.00      0.17808    
    491.00      0.17963    
    492.00      0.18119    
    493.00      0.18275    
    494.00      0.18432    
    495.00      0.18590    
    496.00      0.18749    
    497.00      0.18907    
    498.00      0.19066    
    499.00      0.19225    
    500.00      0.19384    
    501.00      0.19543    
    502.00      0.19704    
    503.00      0.19866    
    504.00      0.20028    
    505.00      0.20191    
    506.00      0.20354    
    507.00      0.20516    
    508.00      0.20680    
    509.00      0.20843    
    510.00      0.21006    
    511.00      0.21171    
    512.00      0.21335    
    513.00      0.21500    
    514.00      0.21665    
    515.00      0.21830    
    516.00      0.21995    
    517.00      0.22160    
    518.00      0.22325    
    519.00      0.22490    
    520.00      0.22655    
    521.00      0.22820    
    522.00      0.22986    
    523.00      0.23151    
    524.00      0.23316    
    525.00      0.23482    
    526.00      0.23647    
    527.00      0.23812    
    528.00      0.23977    
    529.00      0.24142    
    530.00      0.24306    
    531.00      0.24471    
    532.00      0.24636    
    533.00      0.24801    
    534.00      0.24966    
    535.00      0.25131    
    536.00      0.25295    
    537.00      0.25460    
    538.00      0.25624    
    539.00      0.25789    
    540.00      0.25953    
    541.00      0.26118    
    542.00      0.26282    
    543.00      0.26446    
    544.00      0.26611    
    545.00      0.26775    
    546.00      0.26939    
    547.00      0.27103    
    548.00      0.27267    
    549.00      0.27431    
    550.00      0.27595    
    551.00      0.27758    
    552.00      0.27922    
    553.00      0.28089    
    554.00      0.28255    
    555.00      0.28422    
    556.00      0.28589    
    557.00      0.28755    
    558.00      0.28922    
    559.00      0.29088    
    560.00      0.29254    
    561.00      0.29420    
    562.00      0.29588    
    563.00      0.29756    
    564.00      0.29923    
    565.00      0.30090    
    566.00      0.30258    
    567.00      0.30425    
    568.00      0.30592    
    569.00      0.30759    
    570.00      0.30925    
    571.00      0.31093    
    572.00      0.31262    
    573.00      0.31430    
    574.00      0.31598    
    575.00      0.31766    
    576.00      0.31934    
    577.00      0.32101    
    578.00      0.32268    
    579.00      0.32436    
    580.00      0.32603    
    581.00      0.32770    
    582.00      0.32937    
    583.00      0.33104    
    584.00      0.33270    
    585.00      0.33437    
    586.00      0.33603    
    587.00      0.33769    
    588.00      0.33934    
    589.00      0.34100    
    590.00      0.34265    
    591.00      0.34431    
    592.00      0.34596    
    593.00      0.34761    
    594.00      0.34925    
    595.00      0.35090    
    596.00      0.35254    
    597.00      0.35418    
    598.00      0.35581    
    599.00      0.35745    
    600.00      0.35908    
    601.00      0.36071    
    602.00      0.36233    
    603.00      0.36396    
    604.00      0.36558    
    605.00      0.36720    
    606.00      0.36881    
    607.00      0.37043    
    608.00      0.37204    
    609.00      0.37364    
    610.00      0.37525    
    611.00      0.37685    
    612.00      0.37845    
    613.00      0.38005    
    614.00      0.38164    
    615.00      0.38323    
    616.00      0.38482    
    617.00      0.38640    
    618.00      0.38799    
    619.00      0.38957    
    620.00      0.39115    
    621.00      0.39273    
    622.00      0.39430    
    623.00      0.39587    
    624.00      0.39744    
    625.00      0.39900    
    626.00      0.40056    
    627.00      0.40212    
    628.00      0.40368    
    629.00      0.40526    
    630.00      0.40684    
    631.00      0.40842    
    632.00      0.40999    
    633.00      0.41156    
    634.00      0.41312    
    635.00      0.41468    
    636.00      0.41624    
    637.00      0.41780    
    638.00      0.41935    
    639.00      0.42095    
    640.00      0.42254    
    641.00      0.42412    
    642.00      0.42570    
    643.00      0.42728    
    644.00      0.42886    
    645.00      0.43043    
    646.00      0.43200    
    647.00      0.43356    
    648.00      0.43512    
    649.00      0.43670    
    650.00      0.43829    
    651.00      0.43987    
    652.00      0.44144    
    653.00      0.44301    
    654.00      0.44458    
    655.00      0.44614    
    656.00      0.44771    
    657.00      0.44926    
    658.00      0.45082    
    659.00      0.45236    
    660.00      0.45391    
    661.00      0.45545    
    662.00      0.45699    
    663.00      0.45852    
    664.00      0.46005    
    665.00      0.46158    
    666.00      0.46310    
    667.00      0.46462    
    668.00      0.46613    
    669.00      0.46764    
    670.00      0.46909    
    671.00      0.47050    
    672.00      0.47191    
    673.00      0.47331    
    674.00      0.47471    
    675.00      0.47611    
    676.00      0.47750    
    677.00      0.47889    
    678.00      0.48028    
    679.00      0.48166    
    680.00      0.48304    
    681.00      0.48435    
    682.00      0.48565    
    683.00      0.48695    
    684.00      0.48825    
    685.00      0.48954    
    686.00      0.49083    
    687.00      0.49211    
    688.00      0.49339    
    689.00      0.49467    
    690.00      0.49595    
    691.00      0.49722    
    692.00      0.49847    
    693.00      0.49972    
    694.00      0.50096    
    695.00      0.50221    
    696.00      0.50344    
    697.00      0.50468    
    698.00      0.50591    
    699.00      0.50714    
    700.00      0.50836    
    701.00      0.50959    
    702.00      0.51080    
    703.00      0.51206    
    704.00      0.51332    
    705.00      0.51459    
    706.00      0.51585    
    707.00      0.51711    
    708.00      0.51837    
    709.00      0.51962    
    710.00      0.52087    
    711.00      0.52211    
    712.00      0.52336    
    713.00      0.52459    
    714.00      0.52584    
    715.00      0.52711    
    716.00      0.52838    
    717.00      0.52964    
    718.00      0.53090    
    719.00      0.53216    
    720.00      0.53341    
    721.00      0.53466    
    722.00      0.53591    
    723.00      0.53715    
    724.00      0.53839    
    725.00      0.53962    
    726.00      0.54086    
    727.00      0.54208    
    728.00      0.54331    
    729.00      0.54453    
    730.00      0.54575    
    731.00      0.54696    
    732.00      0.54817    
    733.00      0.54938    
    734.00      0.55059    
    735.00      0.55179    
    736.00      0.55299    
    737.00      0.55418    
    738.00      0.55537    
    739.00      0.55656    
    740.00      0.55774    
    741.00      0.55892    
    742.00      0.56010    
    743.00      0.56128    
    744.00      0.56245    
    745.00      0.56361    
    746.00      0.56478    
    747.00      0.56594    
    748.00      0.56710    
    749.00      0.56825    
    750.00      0.56940    
    751.00      0.57055    
    752.00      0.57169    
    753.00      0.57283    
    754.00      0.57397    
    755.00      0.57511    
    756.00      0.57624    
    757.00      0.57736    
    758.00      0.57849    
    759.00      0.57961    
    760.00      0.58073    
    761.00      0.58184    
    762.00      0.58296    
    763.00      0.58407    
    764.00      0.58517    
    765.00      0.58628    
    766.00      0.58738    
    767.00      0.58848    
    768.00      0.58957    
    769.00      0.59066    
    770.00      0.59175    
    771.00      0.59284    
    772.00      0.59392    
    773.00      0.59500    
    774.00      0.59608    
    775.00      0.59715    
    776.00      0.59823    
    777.00      0.59930    
    778.00      0.60037    
    779.00      0.60144    
    780.00      0.60250    
    781.00      0.60356    
    782.00      0.60462    
    783.00      0.60567    
    784.00      0.60672    
    785.00      0.60777    
    786.00      0.60882    
    787.00      0.60986    
    788.00      0.61091    
    789.00      0.61195    
    790.00      0.61298    
    791.00      0.61402    
    792.00      0.61505    
    793.00      0.61608    
    794.00      0.61710    
    795.00      0.61812    
    796.00      0.61914    
    797.00      0.62016    
    798.00      0.62117    
    799.00      0.62218    
    800.00      0.62318    
    801.00      0.62419    
    802.00      0.62519    
    803.00      0.62619    
    804.00      0.62718    
    805.00      0.62817    
    806.00      0.62916    
    807.00      0.63014    
    808.00      0.63113    
    809.00      0.63210    
    810.00      0.63308    
    811.00      0.63405    
    812.00      0.63502    
    813.00      0.63599    
    814.00      0.63696    
    815.00      0.63792    
    816.00      0.63888    
    817.00      0.63983    
    818.00      0.64079    
    819.00      0.64174    
    820.00      0.64268    
    821.00      0.64363    
    822.00      0.64457    
    823.00      0.64551    
    824.00      0.64644    
    825.00      0.64737    
    826.00      0.64830    
    827.00      0.64923    
    828.00      0.65015    
    829.00      0.65108    
    830.00      0.65199    
    831.00      0.65291    
    832.00      0.65382    
    833.00      0.65473    
    834.00      0.65564    
    835.00      0.65654    
    836.00      0.65744    
    837.00      0.65834    
    838.00      0.65924    
    839.00      0.66013    
    840.00      0.66102    
    841.00      0.66191    
    842.00      0.66279    
    843.00      0.66368    
    844.00      0.66456    
    845.00      0.66543    
    846.00      0.66631    
    847.00      0.66718    
    848.00      0.66805    
    849.00      0.66891    
    850.00      0.66978    
    851.00      0.67064    
    852.00      0.67150    
    853.00      0.67235    
    854.00      0.67321    
    855.00      0.67406    
    856.00      0.67491    
    857.00      0.67575    
    858.00      0.67660    
    859.00      0.67744    
    860.00      0.67827    
    861.00      0.67911    
    862.00      0.67994    
    863.00      0.68077    
    864.00      0.68160    
    865.00      0.68243    
    866.00      0.68325    
    867.00      0.68407    
    868.00      0.68489    
    869.00      0.68571    
    870.00      0.68652    
    871.00      0.68733    
    872.00      0.68814    
    873.00      0.68895    
    874.00      0.68975    
    875.00      0.69055    
    876.00      0.69135    
    877.00      0.69215    
    878.00      0.69294    
    879.00      0.69373    
    880.00      0.69452    
    881.00      0.69531    
    882.00      0.69609    
    883.00      0.69687    
    884.00      0.69765    
    885.00      0.69843    
    886.00      0.69920    
    887.00      0.69997    
    888.00      0.70074    
    889.00      0.70151    
    890.00      0.70227    
    891.00      0.70303    
    892.00      0.70379    
    893.00      0.70455    
    894.00      0.70531    
    895.00      0.70606    
    896.00      0.70681    
    897.00      0.70756    
    898.00      0.70830    
    899.00      0.70905    
    900.00      0.70979    
    901.00      0.71053    
    902.00      0.71126    
    903.00      0.71200    
    904.00      0.71273    
    905.00      0.71346    
    906.00      0.71418    
    907.00      0.71491    
    908.00      0.71563    
    909.00      0.71635    
    910.00      0.71707    
    911.00      0.71779    
    912.00      0.71850    
    913.00      0.71921    
    914.00      0.71992    
    915.00      0.72063    
    916.00      0.72133    
    917.00      0.72204    
    918.00      0.72274    
    919.00      0.72344    
    920.00      0.72413    
    921.00      0.72483    
    922.00      0.72552    
    923.00      0.72621    
    924.00      0.72690    
    925.00      0.72759    
    926.00      0.72827    
    927.00      0.72896    
    928.00      0.72964    
    929.00      0.73032    
    930.00      0.73099    
    931.00      0.73167    
    932.00      0.73234    
    933.00      0.73301    
    934.00      0.73368    
    935.00      0.73435    
    936.00      0.73501    
    937.00      0.73568    
    938.00      0.73634    
    939.00      0.73699    
    940.00      0.73765    
    941.00      0.73831    
    942.00      0.73896    
    943.00      0.73961    
    944.00      0.74026    
    945.00      0.74090    
    946.00      0.74155    
    947.00      0.74219    
    948.00      0.74283    
    949.00      0.74347    
    950.00      0.74411    
    951.00      0.74474    
    952.00      0.74537    
    953.00      0.74600    
    954.00      0.74663    
    955.00      0.74726    
    956.00      0.74788    
    957.00      0.74851    
    958.00      0.74913    
    959.00      0.74975    
    960.00      0.75036    
    961.00      0.75098    
    962.00      0.75159    
    963.00      0.75220    
    964.00      0.75281    
    965.00      0.75342    
    966.00      0.75403    
    967.00      0.75463    
    968.00      0.75523    
    969.00      0.75583    
    970.00      0.75643    
    971.00      0.75703    
    972.00      0.75762    
    973.00      0.75822    
    974.00      0.75881    
    975.00      0.75940    
    976.00      0.75999    
    977.00      0.76057    
    978.00      0.76116    
    979.00      0.76174    
    980.00      0.76232    
    981.00      0.76290    
    982.00      0.76348    
    983.00      0.76405    
    984.00      0.76462    
    985.00      0.76519    
    986.00      0.76576    
    987.00      0.76633    
    988.00      0.76690    
    989.00      0.76746    
    990.00      0.76802    
    991.00      0.76858    
    992.00      0.76914    
    993.00      0.76970    
    994.00      0.77025    
    995.00      0.77080    
    996.00      0.77135    
    997.00      0.77190    
    998.00      0.77245    
    999.00      0.77300    
    1000.0      0.77354    
    1001.0      0.77409    
    1002.0      0.77463    
    1003.0      0.77516    
    1004.0      0.77570    
    1005.0      0.77623    
    1006.0      0.77677    
    1007.0      0.77730    
    1008.0      0.77783    
    1009.0      0.77836    
    1010.0      0.77889    
    1011.0      0.77941    
    1012.0      0.77993    
    1013.0      0.78046    
    1014.0      0.78098    
    1015.0      0.78150    
    1016.0      0.78201    
    1017.0      0.78251    
    1018.0      0.78301    
    1019.0      0.78351    
    1020.0      0.78401    
    1021.0      0.78450    
    1022.0      0.78500    
    1023.0      0.78549    
    1024.0      0.78598    
    1025.0      0.78647    
    1026.0      0.78696    
    1027.0      0.78745    
    1028.0      0.78793    
    1029.0      0.78842    
    1030.0      0.78890    
    1031.0      0.78938    
    1032.0      0.78986    
    1033.0      0.79034    
    1034.0      0.79083    
    1035.0      0.79131    
    1036.0      0.79180    
    1037.0      0.79228    
    1038.0      0.79276    
    1039.0      0.79324    
    1040.0      0.79372    
    1041.0      0.79419    
    1042.0      0.79467    
    1043.0      0.79514    
    1044.0      0.79561    
    1045.0      0.79608    
    1046.0      0.79655    
    1047.0      0.79702    
    1048.0      0.79748    
    1049.0      0.79795    
    1050.0      0.79842    
    1051.0      0.79889    
    1052.0      0.79936    
    1053.0      0.79983    
    1054.0      0.80030    
    1055.0      0.80077    
    1056.0      0.80123    
    1057.0      0.80169    
    1058.0      0.80216    
    1059.0      0.80262    
    1060.0      0.80308    
    1061.0      0.80353    
    1062.0      0.80399    
    1063.0      0.80445    
    1064.0      0.80490    
    1065.0      0.80535    
    1066.0      0.80580    
    1067.0      0.80625    
    1068.0      0.80670    
    1069.0      0.80715    
    1070.0      0.80760    
    1071.0      0.80804    
    1072.0      0.80848    
    1073.0      0.80893    
    1074.0      0.80937    
    1075.0      0.80981    
    1076.0      0.81025    
    1077.0      0.81068    
    1078.0      0.81112    
    1079.0      0.81155    
    1080.0      0.81199    
    1081.0      0.81242    
    1082.0      0.81285    
    1083.0      0.81328    
    1084.0      0.81370    
    1085.0      0.81413    
    1086.0      0.81456    
    1087.0      0.81498    
    1088.0      0.81540    
    1089.0      0.81583    
    1090.0      0.81625    
    1091.0      0.81667    
    1092.0      0.81708    
    1093.0      0.81750    
    1094.0      0.81792    
    1095.0      0.81833    
    1096.0      0.81874    
    1097.0      0.81916    
    1098.0      0.81957    
    1099.0      0.81998    
    1100.0      0.82038    
    1101.0      0.82079    
    1102.0      0.82120    
    1103.0      0.82160    
    1104.0      0.82201    
    1105.0      0.82241    
    1106.0      0.82281    
    1107.0      0.82321    
    1108.0      0.82361    
    1109.0      0.82401    
    1110.0      0.82440    
    1111.0      0.82480    
    1112.0      0.82519    
    1113.0      0.82559    
    1114.0      0.82598    
    1115.0      0.82637    
    1116.0      0.82676    
    1117.0      0.82715    
    1118.0      0.82753    
    1119.0      0.82792    
    1120.0      0.82831    
    1121.0      0.82869    
    1122.0      0.82907    
    1123.0      0.82946    
    1124.0      0.82984    
    1125.0      0.83022    
    1126.0      0.83059    
    1127.0      0.83097    
    1128.0      0.83135    
    1129.0      0.83172    
    1130.0      0.83210    
    1131.0      0.83247    
    1132.0      0.83284    
    1133.0      0.83321    
    1134.0      0.83358    
    1135.0      0.83395    
    1136.0      0.83432    
    1137.0      0.83469    
    1138.0      0.83505    
    1139.0      0.83542    
    1140.0      0.83578    
    1141.0      0.83614    
    1142.0      0.83651    
    1143.0      0.83687    
    1144.0      0.83723    
    1145.0      0.83758    
    1146.0      0.83794    
    1147.0      0.83830    
    1148.0      0.83865    
    1149.0      0.83901    
    1150.0      0.83936    
    1151.0      0.83971    
    1152.0      0.84006    
    1153.0      0.84042    
    1154.0      0.84076    
    1155.0      0.84111    
    1156.0      0.84146    
    1157.0      0.84181    
    1158.0      0.84215    
    1159.0      0.84250    
    1160.0      0.84284    
    1161.0      0.84318    
    1162.0      0.84352    
    1163.0      0.84387    
    1164.0      0.84421    
    1165.0      0.84454    
    1166.0      0.84488    
    1167.0      0.84522    
    1168.0      0.84555    
    1169.0      0.84589    
    1170.0      0.84622    
    1171.0      0.84656    
    1172.0      0.84689    
    1173.0      0.84722    
    1174.0      0.84755    
    1175.0      0.84788    
    1176.0      0.84821    
    1177.0      0.84854    
    1178.0      0.84886    
    1179.0      0.84919    
    1180.0      0.84951    
    1181.0      0.84984    
    1182.0      0.85016    
    1183.0      0.85048    
    1184.0      0.85080    
    1185.0      0.85112    
    1186.0      0.85144    
    1187.0      0.85176    
    1188.0      0.85208    
    1189.0      0.85239    
    1190.0      0.85271    
    1191.0      0.85302    
    1192.0      0.85334    
    1193.0      0.85365    
    1194.0      0.85396    
    1195.0      0.85427    
    1196.0      0.85459    
    1197.0      0.85489    
    1198.0      0.85520    
    1199.0      0.85551    
    1200.0      0.85582    
    1201.0      0.85612    
    1202.0      0.85643    
    1203.0      0.85673    
    1204.0      0.85704    
    1205.0      0.85734    
    1206.0      0.85764    
    1207.0      0.85794    
    1208.0      0.85824    
    1209.0      0.85854    
    1210.0      0.85884    
    1211.0      0.85914    
    1212.0      0.85944    
    1213.0      0.85973    
    1214.0      0.86003    
    1215.0      0.86032    
    1216.0      0.86062    
    1217.0      0.86091    
    1218.0      0.86120    
    1219.0      0.86149    
    1220.0      0.86178    
    1221.0      0.86207    
    1222.0      0.86236    
    1223.0      0.86265    
    1224.0      0.86294    
    1225.0      0.86323    
    1226.0      0.86351    
    1227.0      0.86380    
    1228.0      0.86408    
    1229.0      0.86436    
    1230.0      0.86465    
    1231.0      0.86493    
    1232.0      0.86521    
    1233.0      0.86549    
    1234.0      0.86577    
    1235.0      0.86604    
    1236.0      0.86632    
    1237.0      0.86659    
    1238.0      0.86687    
    1239.0      0.86714    
    1240.0      0.86742    
    1241.0      0.86769    
    1242.0      0.86796    
    1243.0      0.86823    
    1244.0      0.86850    
    1245.0      0.86877    
    1246.0      0.86904    
    1247.0      0.86931    
    1248.0      0.86958    
    1249.0      0.86984    
    1250.0      0.87011    
    1251.0      0.87038    
    1252.0      0.87064    
    1253.0      0.87090    
    1254.0      0.87116    
    1255.0      0.87142    
    1256.0      0.87168    
    1257.0      0.87194    
    1258.0      0.87220    
    1259.0      0.87246    
    1260.0      0.87271    
    1261.0      0.87297    
    1262.0      0.87323    
    1263.0      0.87348    
    1264.0      0.87374    
    1265.0      0.87399    
    1266.0      0.87424    
    1267.0      0.87450    
    1268.0      0.87475    
    1269.0      0.87500    
    1270.0      0.87525    
    1271.0      0.87550    
    1272.0      0.87575    
    1273.0      0.87599    
    1274.0      0.87624    
    1275.0      0.87648    
    1276.0      0.87673    
    1277.0      0.87697    
    1278.0      0.87722    
    1279.0      0.87746    
    1280.0      0.87770    
    1281.0      0.87794    
    1282.0      0.87818    
    1283.0      0.87842    
    1284.0      0.87866    
    1285.0      0.87890    
    1286.0      0.87914    
    1287.0      0.87937    
    1288.0      0.87961    
    1289.0      0.87985    
    1290.0      0.88008    
    1291.0      0.88032    
    1292.0      0.88055    
    1293.0      0.88079    
    1294.0      0.88102    
    1295.0      0.88125    
    1296.0      0.88148    
    1297.0      0.88171    
    1298.0      0.88195    
    1299.0      0.88218    
    1300.0      0.88241    
    1301.0      0.88263    
    1302.0      0.88286    
    1303.0      0.88309    
    1304.0      0.88332    
    1305.0      0.88354    
    1306.0      0.88377    
    1307.0      0.88400    
    1308.0      0.88422    
    1309.0      0.88445    
    1310.0      0.88467    
    1311.0      0.88489    
    1312.0      0.88511    
    1313.0      0.88534    
    1314.0      0.88556    
    1315.0      0.88578    
    1316.0      0.88600    
    1317.0      0.88622    
    1318.0      0.88644    
    1319.0      0.88666    
    1320.0      0.88687    
    1321.0      0.88709    
    1322.0      0.88731    
    1323.0      0.88753    
    1324.0      0.88774    
    1325.0      0.88796    
    1326.0      0.88817    
    1327.0      0.88839    
    1328.0      0.88860    
    1329.0      0.88881    
    1330.0      0.88903    
    1331.0      0.88924    
    1332.0      0.88945    
    1333.0      0.88966    
    1334.0      0.88987    
    1335.0      0.89008    
    1336.0      0.89029    
    1337.0      0.89050    
    1338.0      0.89071    
    1339.0      0.89091    
    1340.0      0.89112    
    1341.0      0.89133    
    1342.0      0.89153    
    1343.0      0.89174    
    1344.0      0.89195    
    1345.0      0.89215    
    1346.0      0.89235    
    1347.0      0.89256    
    1348.0      0.89276    
    1349.0      0.89296    
    1350.0      0.89317    
    1351.0      0.89337    
    1352.0      0.89357    
    1353.0      0.89377    
    1354.0      0.89397    
    1355.0      0.89417    
    1356.0      0.89437    
    1357.0      0.89457    
    1358.0      0.89476    
    1359.0      0.89496    
    1360.0      0.89516    
    1361.0      0.89536    
    1362.0      0.89555    
    1363.0      0.89575    
    1364.0      0.89594    
    1365.0      0.89614    
    1366.0      0.89633    
    1367.0      0.89652    
    1368.0      0.89672    
    1369.0      0.89691    
    1370.0      0.89710    
    1371.0      0.89729    
    1372.0      0.89749    
    1373.0      0.89768    
    1374.0      0.89787    
    1375.0      0.89806    
    1376.0      0.89825    
    1377.0      0.89843    
    1378.0      0.89862    
    1379.0      0.89881    
    1380.0      0.89900    
    1381.0      0.89919    
    1382.0      0.89937    
    1383.0      0.89956    
    1384.0      0.89974    
    1385.0      0.89993    
    1386.0      0.90011    
    1387.0      0.90030    
    1388.0      0.90048    
    1389.0      0.90067    
    1390.0      0.90085    
    1391.0      0.90103    
    1392.0      0.90121    
    1393.0      0.90139    
    1394.0      0.90158    
    1395.0      0.90176    
    1396.0      0.90194    
    1397.0      0.90212    
    1398.0      0.90230    
    1399.0      0.90247    
    1400.0      0.90265    
    1401.0      0.90283    
    1402.0      0.90301    
    1403.0      0.90319    
    1404.0      0.90336    
    1405.0      0.90354    
    1406.0      0.90371    
    1407.0      0.90389    
    1408.0      0.90406    
    1409.0      0.90424    
    1410.0      0.90441    
    1411.0      0.90459    
    1412.0      0.90476    
    1413.0      0.90493    
    1414.0      0.90511    
    1415.0      0.90528    
    1416.0      0.90545    
    1417.0      0.90562    
    1418.0      0.90579    
    1419.0      0.90596    
    1420.0      0.90613    
    1421.0      0.90630    
    1422.0      0.90647    
    1423.0      0.90664    
    1424.0      0.90681    
    1425.0      0.90698    
    1426.0      0.90714    
    1427.0      0.90731    
    1428.0      0.90748    
    1429.0      0.90764    
    1430.0      0.90781    
    1431.0      0.90798    
    1432.0      0.90814    
    1433.0      0.90831    
    1434.0      0.90847    
    1435.0      0.90863    
    1436.0      0.90880    
    1437.0      0.90896    
    1438.0      0.90912    
    1439.0      0.90929    
    1440.0      0.90945    
    1441.0      0.90961    
    1442.0      0.90977    
    1443.0      0.90993    
    1444.0      0.91009    
    1445.0      0.91025    
    1446.0      0.91041    
    1447.0      0.91057    
    1448.0      0.91073    
    1449.0      0.91089    
    1450.0      0.91105    
    1451.0      0.91121    
    1452.0      0.91137    
    1453.0      0.91153    
    1454.0      0.91169    
    1455.0      0.91184    
    1456.0      0.91200    
    1457.0      0.91216    
    1458.0      0.91232    
    1459.0      0.91247    
    1460.0      0.91263    
    1461.0      0.91278    
    1462.0      0.91294    
    1463.0      0.91309    
    1464.0      0.91325    
    1465.0      0.91340    
    1466.0      0.91355    
    1467.0      0.91371    
    1468.0      0.91386    
    1469.0      0.91401    
    1470.0      0.91417    
    1471.0      0.91432    
    1472.0      0.91447    
    1473.0      0.91463    
    1474.0      0.91478    
    1475.0      0.91493    
    1476.0      0.91508    
    1477.0      0.91524    
    1478.0      0.91539    
    1479.0      0.91554    
    1480.0      0.91569    
    1481.0      0.91584    
    1482.0      0.91599    
    1483.0      0.91614    
    1484.0      0.91629    
    1485.0      0.91644    
    1486.0      0.91658    
    1487.0      0.91673    
    1488.0      0.91688    
    1489.0      0.91703    
    1490.0      0.91717    
    1491.0      0.91732    
    1492.0      0.91747    
    1493.0      0.91761    
    1494.0      0.91777    
    1495.0      0.91792    
    1496.0      0.91807    
    1497.0      0.91823    
    1498.0      0.91838    
    1499.0      0.91853    
    1500.0      0.91868    
    1501.0      0.91883    
    1502.0      0.91898    
    1503.0      0.91913    
    1504.0      0.91928    
    1505.0      0.91943    
    1506.0      0.91958    
    1507.0      0.91973    
    1508.0      0.91988    
    1509.0      0.92003    
    1510.0      0.92017    
    1511.0      0.92032    
    1512.0      0.92047    
    1513.0      0.92061    
    1514.0      0.92076    
    1515.0      0.92091    
    1516.0      0.92105    
    1517.0      0.92120    
    1518.0      0.92134    
    1519.0      0.92149    
    1520.0      0.92163    
    1521.0      0.92178    
    1522.0      0.92192    
    1523.0      0.92207    
    1524.0      0.92221    
    1525.0      0.92236    
    1526.0      0.92250    
    1527.0      0.92264    
    1528.0      0.92278    
    1529.0      0.92293    
    1530.0      0.92307    
    1531.0      0.92321    
    1532.0      0.92335    
    1533.0      0.92349    
    1534.0      0.92363    
    1535.0      0.92377    
    1536.0      0.92391    
    1537.0      0.92405    
    1538.0      0.92419    
    1539.0      0.92433    
    1540.0      0.92447    
    1541.0      0.92460    
    1542.0      0.92474    
    1543.0      0.92488    
    1544.0      0.92502    
    1545.0      0.92515    
    1546.0      0.92529    
    1547.0      0.92543    
    1548.0      0.92556    
    1549.0      0.92570    
    1550.0      0.92583    
    1551.0      0.92597    
    1552.0      0.92610    
    1553.0      0.92623    
    1554.0      0.92637    
    1555.0      0.92650    
    1556.0      0.92664    
    1557.0      0.92677    
    1558.0      0.92690    
    1559.0      0.92703    
    1560.0      0.40696    
    1561.0      0.40751    
    1562.0      0.40807    
    1563.0      0.40862    
    1564.0      0.40917    
    1565.0      0.40972    
    1566.0      0.41028    
    1567.0      0.41083    
    1568.0      0.41138    
    1569.0      0.41193    
    1570.0      0.41248    
    1571.0      0.41303    
    1572.0      0.41358    
    1573.0      0.41413    
    1574.0      0.41467    
    1575.0      0.41522    
    1576.0      0.41577    
    1577.0      0.41632    
    1578.0      0.41686    
    1579.0      0.41741    
    1580.0      0.41795    
    1581.0      0.41850    
    1582.0      0.41904    
    1583.0      0.41959    
    1584.0      0.42013    
    1585.0      0.42068    
    1586.0      0.42122    
    1587.0      0.42176    
    1588.0      0.42230    
    1589.0      0.42285    
    1590.0      0.42339    
    1591.0      0.42393    
    1592.0      0.42447    
    1593.0      0.42501    
    1594.0      0.42555    
    1595.0      0.42609    
    1596.0      0.42662    
    1597.0      0.42716    
    1598.0      0.42770    
    1599.0      0.42824    
    1600.0      0.42877    
    1601.0      0.42931    
    1602.0      0.42984    
    1603.0      0.43038    
    1604.0      0.43091    
    1605.0      0.43145    
    1606.0      0.43198    
    1607.0      0.43251    
    1608.0      0.43305    
    1609.0      0.43358    
    1610.0      0.43411    
    1611.0      0.43464    
    1612.0      0.43517    
    1613.0      0.43570    
    1614.0      0.43624    
    1615.0      0.43676    
    1616.0      0.43729    
    1617.0      0.43782    
    1618.0      0.43835    
    1619.0      0.43888    
    1620.0      0.43941    
    1621.0      0.43993    
    1622.0      0.44046    
    1623.0      0.44098    
    1624.0      0.44151    
    1625.0      0.44203    
    1626.0      0.44256    
    1627.0      0.44308    
    1628.0      0.44361    
    1629.0      0.44413    
    1630.0      0.44465    
    1631.0      0.44517    
    1632.0      0.44570    
    1633.0      0.44622    
    1634.0      0.44674    
    1635.0      0.44726    
    1636.0      0.44778    
    1637.0      0.44830    
    1638.0      0.44882    
    1639.0      0.44933    
    1640.0      0.44985    
    1641.0      0.45037    
    1642.0      0.45089    
    1643.0      0.45140    
    1644.0      0.45192    
    1645.0      0.45244    
    1646.0      0.45295    
    1647.0      0.45347    
    1648.0      0.45398    
    1649.0      0.45449    
    1650.0      0.45501    
    1651.0      0.45552    
    1652.0      0.45603    
    1653.0      0.45654    
    1654.0      0.45706    
    1655.0      0.45757    
    1656.0      0.45808    
    1657.0      0.45859    
    1658.0      0.45910    
    1659.0      0.45961    
    1660.0      0.46011    
    1661.0      0.46062    
    1662.0      0.46113    
    1663.0      0.46164    
    1664.0      0.46214    
    1665.0      0.46265    
    1666.0      0.46316    
    1667.0      0.46366    
    1668.0      0.46417    
    1669.0      0.46467    
    1670.0      0.46518    
    1671.0      0.46568    
    1672.0      0.46618    
    1673.0      0.46668    
    1674.0      0.46719    
    1675.0      0.46769    
    1676.0      0.46819    
    1677.0      0.46869    
    1678.0      0.46919    
    1679.0      0.46969    
    1680.0      0.47019    
    1681.0      0.47069    
    1682.0      0.47119    
    1683.0      0.47168    
    1684.0      0.47218    
    1685.0      0.47268    
    1686.0      0.47317    
    1687.0      0.47367    
    1688.0      0.47417    
    1689.0      0.47466    
    1690.0      0.47516    
    1691.0      0.47565    
    1692.0      0.47614    
    1693.0      0.47664    
    1694.0      0.47713    
    1695.0      0.47762    
    1696.0      0.47811    
    1697.0      0.47860    
    1698.0      0.47910    
    1699.0      0.47959    
    1700.0      0.48008    
    1701.0      0.48056    
    1702.0      0.48105    
    1703.0      0.48154    
    1704.0      0.48203    
    1705.0      0.48252    
    1706.0      0.48301    
    1707.0      0.48349    
    1708.0      0.48398    
    1709.0      0.48446    
    1710.0      0.48495    
    1711.0      0.48543    
    1712.0      0.48592    
    1713.0      0.48640    
    1714.0      0.48688    
    1715.0      0.48737    
    1716.0      0.48785    
    1717.0      0.48833    
    1718.0      0.48881    
    1719.0      0.48929    
    1720.0      0.48978    
    1721.0      0.49026    
    1722.0      0.49073    
    1723.0      0.49121    
    1724.0      0.49169    
    1725.0      0.49217    
    1726.0      0.49266    
    1727.0      0.49316    
    1728.0      0.49365    
    1729.0      0.49414    
    1730.0      0.49463    
    1731.0      0.49512    
    1732.0      0.49561    
    1733.0      0.49610    
    1734.0      0.49659    
    1735.0      0.49708    
    1736.0      0.49757    
    1737.0      0.49805    
    1738.0      0.49854    
    1739.0      0.49903    
    1740.0      0.49951    
    1741.0      0.50000    
    1742.0      0.50048    
    1743.0      0.50097    
    1744.0      0.50145    
    1745.0      0.50194    
    1746.0      0.50242    
    1747.0      0.50290    
    1748.0      0.50339    
    1749.0      0.50387    
    1750.0      0.50435    
    1751.0      0.50483    
    1752.0      0.50531    
    1753.0      0.50579    
    1754.0      0.50627    
    1755.0      0.50676    
    1756.0      0.50724    
    1757.0      0.50773    
    1758.0      0.50821    
    1759.0      0.50869    
    1760.0      0.50917    
    1761.0      0.50965    
    1762.0      0.51013    
    1763.0      0.51061    
    1764.0      0.51109    
    1765.0      0.51157    
    1766.0      0.51205    
    1767.0      0.51253    
    1768.0      0.51301    
    1769.0      0.51348    
    1770.0      0.51396    
    1771.0      0.51444    
    1772.0      0.51491    
    1773.0      0.51539    
    1774.0      0.51586    
    1775.0      0.51634    
    1776.0      0.51681    
    1777.0      0.51728    
    1778.0      0.51775    
    1779.0      0.51823    
    1780.0      0.51870    
    1781.0      0.51917    
    1782.0      0.51964    
    1783.0      0.52012    
    1784.0      0.52059    
    1785.0      0.52106    
    1786.0      0.52154    
    1787.0      0.52201    
    1788.0      0.52248    
    1789.0      0.52295    
    1790.0      0.52342    
    1791.0      0.52389    
    1792.0      0.52436    
    1793.0      0.52483    
    1794.0      0.52530    
    1795.0      0.52577    
    1796.0      0.52623    
    1797.0      0.52670    
    1798.0      0.52717    
    1799.0      0.52763    
    1800.0      0.52810    
    1801.0      0.52857    
    1802.0      0.52903    
    1803.0      0.52949    
    1804.0      0.52996    
    1805.0      0.53042    
    1806.0      0.53088    
    1807.0      0.53135    
    1808.0      0.53181    
    1809.0      0.53227    
    1810.0      0.53273    
    1811.0      0.53319    
    1812.0      0.53365    
    1813.0      0.53411    
    1814.0      0.53457    
    1815.0      0.53503    
    1816.0      0.53548    
    1817.0      0.53594    
    1818.0      0.53640    
    1819.0      0.53685    
    1820.0      0.53731    
    1821.0      0.53777    
    1822.0      0.53822    
    1823.0      0.53868    
    1824.0      0.53913    
    1825.0      0.53958    
    1826.0      0.54004    
    1827.0      0.54049    
    1828.0      0.54094    
    1829.0      0.54139    
    1830.0      0.54184    
    1831.0      0.54229    
    1832.0      0.54274    
    1833.0      0.54319    
    1834.0      0.54364    
    1835.0      0.54409    
    1836.0      0.54454    
    1837.0      0.54499    
    1838.0      0.54543    
    1839.0      0.54588    
    1840.0      0.54633    
    1841.0      0.54677    
    1842.0      0.54722    
    1843.0      0.54766    
    1844.0      0.54811    
    1845.0      0.54855    
    1846.0      0.54899    
    1847.0      0.54944    
    1848.0      0.54988    
    1849.0      0.55032    
    1850.0      0.55076    
    1851.0      0.55120    
    1852.0      0.55164    
    1853.0      0.55208    
    1854.0      0.55252    
    1855.0      0.55296    
    1856.0      0.55340    
    1857.0      0.55384    
    1858.0      0.55428    
    1859.0      0.55471    
    1860.0      0.55515    
    1861.0      0.55559    
    1862.0      0.55602    
    1863.0      0.55646    
    1864.0      0.55689    
    1865.0      0.55733    
    1866.0      0.55776    
    1867.0      0.55819    
    1868.0      0.55863    
    1869.0      0.55906    
    1870.0      0.55949    
    1871.0      0.55992    
    1872.0      0.56035    
    1873.0      0.56078    
    1874.0      0.56121    
    1875.0      0.56164    
    1876.0      0.56207    
    1877.0      0.56250    
    1878.0      0.56293    
    1879.0      0.56336    
    1880.0      0.56379    
    1881.0      0.56421    
    1882.0      0.56464    
    1883.0      0.56506    
    1884.0      0.56549    
    1885.0      0.56591    
    1886.0      0.56634    
    1887.0      0.56676    
    1888.0      0.56719    
    1889.0      0.56761    
    1890.0      0.56803    
    1891.0      0.56845    
    1892.0      0.56888    
    1893.0      0.56930    
    1894.0      0.56972    
    1895.0      0.57014    
    1896.0      0.57056    
    1897.0      0.57098    
    1898.0      0.57140    
    1899.0      0.57182    
    1900.0      0.57223    
    1901.0      0.57265    
    1902.0      0.57307    
    1903.0      0.57348    
    1904.0      0.57390    
    1905.0      0.57432    
    1906.0      0.57473    
    1907.0      0.57515    
    1908.0      0.57556    
    1909.0      0.57597    
    1910.0      0.57639    
    1911.0      0.57680    
    1912.0      0.57721    
    1913.0      0.57762    
    1914.0      0.57804    
    1915.0      0.57845    
    1916.0      0.57886    
    1917.0      0.57927    
    1918.0      0.57968    
    1919.0      0.58009    
    1920.0      0.58049    
    1921.0      0.58090    
    1922.0      0.58131    
    1923.0      0.58172    
    1924.0      0.58213    
    1925.0      0.58253    
    1926.0      0.58294    
    1927.0      0.58334    
    1928.0      0.58375    
    1929.0      0.58415    
    1930.0      0.58456    
    1931.0      0.58496    
    1932.0      0.58536    
    1933.0      0.58577    
    1934.0      0.58617    
    1935.0      0.58657    
    1936.0      0.58697    
    1937.0      0.58737    
    1938.0      0.58777    
    1939.0      0.58817    
    1940.0      0.58857    
    1941.0      0.58897    
    1942.0      0.58937    
    1943.0      0.58977    
    1944.0      0.59017    
    1945.0      0.59057    
    1946.0      0.59096    
    1947.0      0.59136    
    1948.0      0.59176    
    1949.0      0.59215    
    1950.0      0.59255    
    1951.0      0.59294    
    1952.0      0.59334    
    1953.0      0.59373    
    1954.0      0.59412    
    1955.0      0.59452    
    1956.0      0.59491    
    1957.0      0.59530    
    1958.0      0.59569    
    1959.0      0.59608    
    1960.0      0.59648    
    1961.0      0.59687    
    1962.0      0.59726    
    1963.0      0.59764    
    1964.0      0.59803    
    1965.0      0.59842    
    1966.0      0.59881    
    1967.0      0.59920    
    1968.0      0.59959    
    1969.0      0.59997    
    1970.0      0.60036    
    1971.0      0.60075    
    1972.0      0.60113    
    1973.0      0.60152    
    1974.0      0.60190    
    1975.0      0.60229    
    1976.0      0.60267    
    1977.0      0.60305    
    1978.0      0.60344    
    1979.0      0.60382    
    1980.0      0.60420    
    1981.0      0.60458    
    1982.0      0.60496    
    1983.0      0.60535    
    1984.0      0.60573    
    1985.0      0.60611    
    1986.0      0.60649    
    1987.0      0.60686    
    1988.0      0.60724    
    1989.0      0.60762    
    1990.0      0.60800    
    1991.0      0.60838    
    1992.0      0.60875    
    1993.0      0.60913    
    1994.0      0.60950    
    1995.0      0.60987    
    1996.0      0.61024    
    1997.0      0.61061    
    1998.0      0.61098    
    1999.0      0.61134    
    2000.0      0.61171    
    2001.0      0.61208    
    2002.0      0.61245    
    2003.0      0.61281    
    2004.0      0.61318    
    2005.0      0.61354    
    2006.0      0.61391    
    2007.0      0.61427    
    2008.0      0.61464    
    2009.0      0.61500    
    2010.0      0.61537    
    2011.0      0.61573    
    2012.0      0.61609    
    2013.0      0.61645    
    2014.0      0.61682    
    2015.0      0.61718    
    2016.0      0.61754    
    2017.0      0.61790    
    2018.0      0.61826    
    2019.0      0.61862    
    2020.0      0.61898    
    2021.0      0.61934    
    2022.0      0.61970    
    2023.0      0.62005    
    2024.0      0.62041    
    2025.0      0.62077    
    2026.0      0.62114    
    2027.0      0.62151    
    2028.0      0.62188    
    2029.0      0.62225    
    2030.0      0.62262    
    2031.0      0.62299    
    2032.0      0.62335    
    2033.0      0.62372    
    2034.0      0.62409    
    2035.0      0.62446    
    2036.0      0.62482    
    2037.0      0.62519    
    2038.0      0.62556    
    2039.0      0.62592    
    2040.0      0.62629    
    2041.0      0.62665    
    2042.0      0.62702    
    2043.0      0.62738    
    2044.0      0.62774    
    2045.0      0.62811    
    2046.0      0.62847    
    2047.0      0.62883    
    2048.0      0.62919    
    2049.0      0.62956    
    2050.0      0.62992    
    2051.0      0.63028    
    2052.0      0.63064    
    2053.0      0.63100    
    2054.0      0.63136    
    2055.0      0.63171    
    2056.0      0.63207    
    2057.0      0.63243    
    2058.0      0.63279    
    2059.0      0.63315    
    2060.0      0.63351    
    2061.0      0.63387    
    2062.0      0.63422    
    2063.0      0.63458    
    2064.0      0.63494    
    2065.0      0.63530    
    2066.0      0.63565    
    2067.0      0.63601    
    2068.0      0.63636    
    2069.0      0.63672    
    2070.0      0.63707    
    2071.0      0.63743    
    2072.0      0.63778    
    2073.0      0.63814    
    2074.0      0.63849    
    2075.0      0.63884    
    2076.0      0.63919    
    2077.0      0.63955    
    2078.0      0.63990    
    2079.0      0.64025    
    2080.0      0.64060    
    2081.0      0.64095    
    2082.0      0.64130    
    2083.0      0.64165    
    2084.0      0.64200    
    2085.0      0.64235    
    2086.0      0.64270    
    2087.0      0.64304    
    2088.0      0.64339    
    2089.0      0.64374    
    2090.0      0.64408    
    2091.0      0.64443    
    2092.0      0.64478    
    2093.0      0.64512    
    2094.0      0.64547    
    2095.0      0.64582    
    2096.0      0.64616    
    2097.0      0.64651    
    2098.0      0.64685    
    2099.0      0.64720    
    2100.0      0.64754    
    2101.0      0.64789    
    2102.0      0.64823    
    2103.0      0.64857    
    2104.0      0.64891    
    2105.0      0.64926    
    2106.0      0.64960    
    2107.0      0.64994    
    2108.0      0.65028    
    2109.0      0.65062    
    2110.0      0.65096    
    2111.0      0.65130    
    2112.0      0.65164    
    2113.0      0.65198    
    2114.0      0.65232    
    2115.0      0.65265    
    2116.0      0.65299    
    2117.0      0.65333    
    2118.0      0.65367    
    2119.0      0.65400    
    2120.0      0.65434    
    2121.0      0.65467    
    2122.0      0.65501    
    2123.0      0.65534    
    2124.0      0.65568    
    2125.0      0.65601    
    2126.0      0.65635    
    2127.0      0.65668    
    2128.0      0.65702    
    2129.0      0.65735    
    2130.0      0.65768    
    2131.0      0.65802    
    2132.0      0.65835    
    2133.0      0.65868    
    2134.0      0.65901    
    2135.0      0.65934    
    2136.0      0.65967    
    2137.0      0.66000    
    2138.0      0.66033    
    2139.0      0.66066    
    2140.0      0.66099    
    2141.0      0.66132    
    2142.0      0.66165    
    2143.0      0.66198    
    2144.0      0.66231    
    2145.0      0.66263    
    2146.0      0.66296    
    2147.0      0.66329    
    2148.0      0.66361    
    2149.0      0.66394    
    2150.0      0.66426    
    2151.0      0.66459    
    2152.0      0.66491    
    2153.0      0.66524    
    2154.0      0.66556    
    2155.0      0.66588    
    2156.0      0.66621    
    2157.0      0.66653    
    2158.0      0.66685    
    2159.0      0.66717    
    2160.0      0.66750    
    2161.0      0.66782    
    2162.0      0.66814    
    2163.0      0.66846    
    2164.0      0.66879    
    2165.0      0.66911    
    2166.0      0.66943    
    2167.0      0.66975    
    2168.0      0.67007    
    2169.0      0.67039    
    2170.0      0.67071    
    2171.0      0.67103    
    2172.0      0.67135    
    2173.0      0.67167    
    2174.0      0.67198    
    2175.0      0.67230    
    2176.0      0.67262    
    2177.0      0.67294    
    2178.0      0.67325    
    2179.0      0.67357    
    2180.0      0.67389    
    2181.0      0.67420    
    2182.0      0.67452    
    2183.0      0.67483    
    2184.0      0.67515    
    2185.0      0.67546    
    2186.0      0.67577    
    2187.0      0.67609    
    2188.0      0.67640    
    2189.0      0.67671    
    2190.0      0.67702    
    2191.0      0.67734    
    2192.0      0.67765    
    2193.0      0.67796    
    2194.0      0.67827    
    2195.0      0.67858    
    2196.0      0.67889    
    2197.0      0.67920    
    2198.0      0.67951    
    2199.0      0.67982    
    2200.0      0.68013    
    2201.0      0.68044    
    2202.0      0.68075    
    2203.0      0.68105    
    2204.0      0.68136    
    2205.0      0.68167    
    2206.0      0.68198    
    2207.0      0.68228    
    2208.0      0.68259    
    2209.0      0.68290    
    2210.0      0.68320    
    2211.0      0.68351    
    2212.0      0.68381    
    2213.0      0.68412    
    2214.0      0.68442    
    2215.0      0.68472    
    2216.0      0.68503    
    2217.0      0.68533    
    2218.0      0.68563    
    2219.0      0.68594    
    2220.0      0.68624    
    2221.0      0.68654    
    2222.0      0.68684    
    2223.0      0.68714    
    2224.0      0.68744    
    2225.0      0.68774    
    2226.0      0.68804    
    2227.0      0.68834    
    2228.0      0.68864    
    2229.0      0.68894    
    2230.0      0.68924    
    2231.0      0.68954    
    2232.0      0.68984    
    2233.0      0.69014    
    2234.0      0.69043    
    2235.0      0.69073    
    2236.0      0.69103    
    2237.0      0.69133    
    2238.0      0.69162    
    2239.0      0.69192    
    2240.0      0.69222    
    2241.0      0.69251    
    2242.0      0.69281    
    2243.0      0.69310    
    2244.0      0.69340    
    2245.0      0.69369    
    2246.0      0.69399    
    2247.0      0.69428    
    2248.0      0.69457    
    2249.0      0.69487    
    2250.0      0.69516    
    2251.0      0.69545    
    2252.0      0.69574    
    2253.0      0.69603    
    2254.0      0.69633    
    2255.0      0.69662    
    2256.0      0.69691    
    2257.0      0.69720    
    2258.0      0.69749    
    2259.0      0.69778    
    2260.0      0.69807    
    2261.0      0.69836    
    2262.0      0.69864    
    2263.0      0.69893    
    2264.0      0.69922    
    2265.0      0.69951    
    2266.0      0.69980    
    2267.0      0.70008    
    2268.0      0.70037    
    2269.0      0.70066    
    2270.0      0.70094    
    2271.0      0.70123    
    2272.0      0.70152    
    2273.0      0.70180    
    2274.0      0.70209    
    2275.0      0.70237    
    2276.0      0.70266    
    2277.0      0.70294    
    2278.0      0.70323    
    2279.0      0.70351    
    2280.0      0.70379    
    2281.0      0.70408    
    2282.0      0.70436    
    2283.0      0.70464    
    2284.0      0.70492    
    2285.0      0.70521    
    2286.0      0.70549    
    2287.0      0.70577    
    2288.0      0.70605    
    2289.0      0.70633    
    2290.0      0.70661    
    2291.0      0.70689    
    2292.0      0.70717    
    2293.0      0.70745    
    2294.0      0.70773    
    2295.0      0.70800    
    2296.0      0.70828    
    2297.0      0.70856    
    2298.0      0.70884    
    2299.0      0.70911    
    2300.0      0.70939    
    2301.0      0.70967    
    2302.0      0.70994    
    2303.0      0.71022    
    2304.0      0.71050    
    2305.0      0.71077    
    2306.0      0.71105    
    2307.0      0.71132    
    2308.0      0.71160    
    2309.0      0.71187    
    2310.0      0.71215    
    2311.0      0.71242    
    2312.0      0.71269    
    2313.0      0.71297    
    2314.0      0.71324    
    2315.0      0.71351    
    2316.0      0.71379    
    2317.0      0.71406    
    2318.0      0.71433    
    2319.0      0.71460    
    2320.0      0.71487    
    2321.0      0.71514    
    2322.0      0.71541    
    2323.0      0.71568    
    2324.0      0.71595    
    2325.0      0.71622    
    2326.0      0.71649    
    2327.0      0.71676    
    2328.0      0.71703    
    2329.0      0.71730    
    2330.0      0.71757    
    2331.0      0.71783    
    2332.0      0.71810    
    2333.0      0.71837    
    2334.0      0.71863    
    2335.0      0.71890    
    2336.0      0.71917    
    2337.0      0.71943    
    2338.0      0.71970    
    2339.0      0.71996    
    2340.0      0.72023    
    2341.0      0.72049    
    2342.0      0.72076    
    2343.0      0.72102    
    2344.0      0.72129    
    2345.0      0.72155    
    2346.0      0.72182    
    2347.0      0.72208    
    2348.0      0.72234    
    2349.0      0.72261    
    2350.0      0.72287    
    2351.0      0.72313    
    2352.0      0.72339    
    2353.0      0.72366    
    2354.0      0.72392    
    2355.0      0.72418    
    2356.0      0.72444    
    2357.0      0.72470    
    2358.0      0.72496    
    2359.0      0.72522    
    2360.0      0.72548    
    2361.0      0.72574    
    2362.0      0.72600    
    2363.0      0.72626    
    2364.0      0.72652    
    2365.0      0.72677    
    2366.0      0.72703    
    2367.0      0.72729    
    2368.0      0.72755    
    2369.0      0.72780    
    2370.0      0.72806    
    2371.0      0.72832    
    2372.0      0.72857    
    2373.0      0.72883    
    2374.0      0.72908    
    2375.0      0.72934    
    2376.0      0.72959    
    2377.0      0.72985    
    2378.0      0.73010    
    2379.0      0.73036    
    2380.0      0.73061    
    2381.0      0.73087    
    2382.0      0.73112    
    2383.0      0.73137    
    2384.0      0.73163    
    2385.0      0.73188    
    2386.0      0.73213    
    2387.0      0.73238    
    2388.0      0.73263    
    2389.0      0.73289    
    2390.0      0.73314    
    2391.0      0.73339    
    2392.0      0.73364    
    2393.0      0.73389    
    2394.0      0.73414    
    2395.0      0.73439    
    2396.0      0.73464    
    2397.0      0.73489    
    2398.0      0.73514    
    2399.0      0.73539    
    2400.0      0.73563    
    2401.0      0.73588    
    2402.0      0.73613    
    2403.0      0.73638    
    2404.0      0.73662    
    2405.0      0.73687    
    2406.0      0.73712    
    2407.0      0.73736    
    2408.0      0.73761    
    2409.0      0.73785    
    2410.0      0.73810    
    2411.0      0.73835    
    2412.0      0.73859    
    2413.0      0.73883    
    2414.0      0.73908    
    2415.0      0.73932    
    2416.0      0.73957    
    2417.0      0.73981    
    2418.0      0.74005    
    2419.0      0.74030    
    2420.0      0.74054    
    2421.0      0.74078    
    2422.0      0.74103    
    2423.0      0.74127    
    2424.0      0.74151    
    2425.0      0.74175    
    2426.0      0.74199    
    2427.0      0.74223    
    2428.0      0.74248    
    2429.0      0.74272    
    2430.0      0.74296    
    2431.0      0.74320    
    2432.0      0.74344    
    2433.0      0.74368    
    2434.0      0.74392    
    2435.0      0.74415    
    2436.0      0.74439    
    2437.0      0.74463    
    2438.0      0.74487    
    2439.0      0.74511    
    2440.0      0.74534    
    2441.0      0.74558    
    2442.0      0.74582    
    2443.0      0.74606    
    2444.0      0.74629    
    2445.0      0.74653    
    2446.0      0.74676    
    2447.0      0.74700    
    2448.0      0.74723    
    2449.0      0.74747    
    2450.0      0.74770    
    2451.0      0.74794    
    2452.0      0.74817    
    2453.0      0.74841    
    2454.0      0.74864    
    2455.0      0.74887    
    2456.0      0.74911    
    2457.0      0.74934    
    2458.0      0.74958    
    2459.0      0.74981    
    2460.0      0.75004    
    2461.0      0.75027    
    2462.0      0.75051    
    2463.0      0.75074    
    2464.0      0.75097    
    2465.0      0.75120    
    2466.0      0.75143    
    2467.0      0.75166    
    2468.0      0.75190    
    2469.0      0.75213    
    2470.0      0.75236    
    2471.0      0.75259    
    2472.0      0.75282    
    2473.0      0.75305    
    2474.0      0.75328    
    2475.0      0.75350    
    2476.0      0.75373    
    2477.0      0.75396    
    2478.0      0.75419    
    2479.0      0.75442    
    2480.0      0.75464    
    2481.0      0.75487    
    2482.0      0.75510    
    2483.0      0.75533    
    2484.0      0.75555    
    2485.0      0.75578    
    2486.0      0.75600    
    2487.0      0.75623    
    2488.0      0.75646    
    2489.0      0.75668    
    2490.0      0.75691    
    2491.0      0.75713    
    2492.0      0.75736    
    2493.0      0.75758    
    2494.0      0.75780    
    2495.0      0.75803    
    2496.0      0.75825    
    2497.0      0.75847    
    2498.0      0.75870    
    2499.0      0.75892    
    2500.0      0.75914    
    2501.0      0.75937    
    2502.0      0.75959    
    2503.0      0.75981    
    2504.0      0.76003    
    2505.0      0.76025    
    2506.0      0.76047    
    2507.0      0.76070    
    2508.0      0.76092    
    2509.0      0.76114    
    2510.0      0.76136    
    2511.0      0.76158    
    2512.0      0.76180    
    2513.0      0.76202    
    2514.0      0.76224    
    2515.0      0.76245    
    2516.0      0.76267    
    2517.0      0.76289    
    2518.0      0.76311    
    2519.0      0.76333    
    2520.0      0.76354    
    2521.0      0.76376    
    2522.0      0.76398    
    2523.0      0.76420    
    2524.0      0.76441    
    2525.0      0.76463    
    2526.0      0.76484    
    2527.0      0.76506    
    2528.0      0.76528    
    2529.0      0.76549    
    2530.0      0.76571    
    2531.0      0.76592    
    2532.0      0.76614    
    2533.0      0.76635    
    2534.0      0.76656    
    2535.0      0.76678    
    2536.0      0.76699    
    2537.0      0.76721    
    2538.0      0.76742    
    2539.0      0.76763    
    2540.0      0.76785    
    2541.0      0.76806    
    2542.0      0.76827    
    2543.0      0.76849    
    2544.0      0.76870    
    2545.0      0.76891    
    2546.0      0.76912    
    2547.0      0.76933    
    2548.0      0.76954    
    2549.0      0.76975    
    2550.0      0.76997    
    2551.0      0.77018    
    2552.0      0.77039    
    2553.0      0.77060    
    2554.0      0.77081    
    2555.0      0.77102    
    2556.0      0.77122    
    2557.0      0.77143    
    2558.0      0.77164    
    2559.0      0.77185    
    2560.0      0.77206    
    2561.0      0.77227    
    2562.0      0.77248    
    2563.0      0.77268    
    2564.0      0.77289    
    2565.0      0.77310    
    2566.0      0.77330    
    2567.0      0.77351    
    2568.0      0.77372    
    2569.0      0.77392    
    2570.0      0.77413    
    2571.0      0.77433    
    2572.0      0.77454    
    2573.0      0.77475    
    2574.0      0.77495    
    2575.0      0.77515    
    2576.0      0.77536    
    2577.0      0.77556    
    2578.0      0.77577    
    2579.0      0.77597    
    2580.0      0.77618    
    2581.0      0.77638    
    2582.0      0.77658    
    2583.0      0.77679    
    2584.0      0.77699    
    2585.0      0.77719    
    2586.0      0.77740    
    2587.0      0.77760    
    2588.0      0.77780    
    2589.0      0.77800    
    2590.0      0.77820    
    2591.0      0.77840    
    2592.0      0.77861    
    2593.0      0.77881    
    2594.0      0.77901    
    2595.0      0.77921    
    2596.0      0.77941    
    2597.0      0.77961    
    2598.0      0.77981    
    2599.0      0.78001    
    2600.0      0.78021    
    2601.0      0.78041    
    2602.0      0.78060    
    2603.0      0.78080    
    2604.0      0.78100    
    2605.0      0.78120    
    2606.0      0.78140    
    2607.0      0.78160    
    2608.0      0.78179    
    2609.0      0.78199    
    2610.0      0.78219    
    2611.0      0.78238    
    2612.0      0.78258    
    2613.0      0.78278    
    2614.0      0.78297    
    2615.0      0.78317    
    2616.0      0.78336    
    2617.0      0.78356    
    2618.0      0.78375    
    2619.0      0.78395    
    2620.0      0.78415    
    2621.0      0.78434    
    2622.0      0.78454    
    2623.0      0.78473    
    2624.0      0.78493    
    2625.0      0.78512    
    2626.0      0.78531    
    2627.0      0.78551    
    2628.0      0.78570    
    2629.0      0.78589    
    2630.0      0.78609    
    2631.0      0.78628    
    2632.0      0.78647    
    2633.0      0.78667    
    2634.0      0.78686    
    2635.0      0.78705    
    2636.0      0.78724    
    2637.0      0.78743    
    2638.0      0.78762    
    2639.0      0.78782    
    2640.0      0.78801    
    2641.0      0.78820    
    2642.0      0.78839    
    2643.0      0.78858    
    2644.0      0.78877    
    2645.0      0.78896    
    2646.0      0.78915    
    2647.0      0.78934    
    2648.0      0.78953    
    2649.0      0.78971    
    2650.0      0.78990    
    2651.0      0.79009    
    2652.0      0.79028    
    2653.0      0.79047    
    2654.0      0.79066    
    2655.0      0.79084    
    2656.0      0.79103    
    2657.0      0.79122    
    2658.0      0.79141    
    2659.0      0.79159    
    2660.0      0.79178    
    2661.0      0.79197    
    2662.0      0.79215    
    2663.0      0.79234    
    2664.0      0.79252    
    2665.0      0.79271    
    2666.0      0.79289    
    2667.0      0.79308    
    2668.0      0.79327    
    2669.0      0.79345    
    2670.0      0.79364    
    2671.0      0.79382    
    2672.0      0.79400    
    2673.0      0.79419    
    2674.0      0.79437    
    2675.0      0.79456    
    2676.0      0.79474    
    2677.0      0.79492    
    2678.0      0.79511    
    2679.0      0.79529    
    2680.0      0.79547    
    2681.0      0.79565    
    2682.0      0.79584    
    2683.0      0.79602    
    2684.0      0.79620    
    2685.0      0.79638    
    2686.0      0.79656    
    2687.0      0.79674    
    2688.0      0.79692    
    2689.0      0.79711    
    2690.0      0.79729    
    2691.0      0.79747    
    2692.0      0.79765    
    2693.0      0.79783    
    2694.0      0.79801    
    2695.0      0.79819    
    2696.0      0.79836    
    2697.0      0.79854    
    2698.0      0.79872    
    2699.0      0.79890    
    2700.0      0.79908    
    2701.0      0.79926    
    2702.0      0.79944    
    2703.0      0.79961    
    2704.0      0.79979    
    2705.0      0.79997    
    2706.0      0.80015    
    2707.0      0.80033    
    2708.0      0.80050    
    2709.0      0.80068    
    2710.0      0.80086    
    2711.0      0.80103    
    2712.0      0.80121    
    2713.0      0.80139    
    2714.0      0.80156    
    2715.0      0.80174    
    2716.0      0.80192    
    2717.0      0.80209    
    2718.0      0.80227    
    2719.0      0.80244    
    2720.0      0.80262    
    2721.0      0.80279    
    2722.0      0.80297    
    2723.0      0.80314    
    2724.0      0.80332    
    2725.0      0.80349    
    2726.0      0.80366    
    2727.0      0.80384    
    2728.0      0.80401    
    2729.0      0.80419    
    2730.0      0.80436    
    2731.0      0.80453    
    2732.0      0.80470    
    2733.0      0.80488    
    2734.0      0.80505    
    2735.0      0.80522    
    2736.0      0.80539    
    2737.0      0.80556    
    2738.0      0.80574    
    2739.0      0.80591    
    2740.0      0.80608    
    2741.0      0.80625    
    2742.0      0.80642    
    2743.0      0.80659    
    2744.0      0.80676    
    2745.0      0.80693    
    2746.0      0.80710    
    2747.0      0.80727    
    2748.0      0.80744    
    2749.0      0.80761    
    2750.0      0.80778    
    2751.0      0.80795    
    2752.0      0.80812    
    2753.0      0.80829    
    2754.0      0.80846    
    2755.0      0.80863    
    2756.0      0.80879    
    2757.0      0.80896    
    2758.0      0.80913    
    2759.0      0.80930    
    2760.0      0.80947    
    2761.0      0.80963    
    2762.0      0.80980    
    2763.0      0.80997    
    2764.0      0.81013    
    2765.0      0.81030    
    2766.0      0.81047    
    2767.0      0.81063    
    2768.0      0.81080    
    2769.0      0.81097    
    2770.0      0.81113    
    2771.0      0.81130    
    2772.0      0.81146    
    2773.0      0.81163    
    2774.0      0.81179    
    2775.0      0.81196    
    2776.0      0.81212    
    2777.0      0.81229    
    2778.0      0.81245    
    2779.0      0.81261    
    2780.0      0.81278    
    2781.0      0.81294    
    2782.0      0.81311    
    2783.0      0.81327    
    2784.0      0.81343    
    2785.0      0.81359    
    2786.0      0.81376    
    2787.0      0.81392    
    2788.0      0.81408    
    2789.0      0.81424    
    2790.0      0.81441    
    2791.0      0.81457    
    2792.0      0.81473    
    2793.0      0.81489    
    2794.0      0.81505    
    2795.0      0.81522    
    2796.0      0.81538    
    2797.0      0.81554    
    2798.0      0.81570    
    2799.0      0.81586    
    2800.0      0.81602    
    2801.0      0.81618    
    2802.0      0.81634    
    2803.0      0.81650    
    2804.0      0.81666    
    2805.0      0.81682    
    2806.0      0.81698    
    2807.0      0.81714    
    2808.0      0.81730    
    2809.0      0.81746    
    2810.0      0.81762    
    2811.0      0.81777    
    2812.0      0.81793    
    2813.0      0.81809    
    2814.0      0.81825    
    2815.0      0.81841    
    2816.0      0.81856    
    2817.0      0.81872    
    2818.0      0.81888    
    2819.0      0.81904    
    2820.0      0.81919    
    2821.0      0.81935    
    2822.0      0.81951    
    2823.0      0.81966    
    2824.0      0.81982    
    2825.0      0.81998    
    2826.0      0.82013    
    2827.0      0.82029    
    2828.0      0.82044    
    2829.0      0.82060    
    2830.0      0.82075    
    2831.0      0.82091    
    2832.0      0.82106    
    2833.0      0.82122    
    2834.0      0.82137    
    2835.0      0.82153    
    2836.0      0.82168    
    2837.0      0.82184    
    2838.0      0.82199    
    2839.0      0.82214    
    2840.0      0.82230    
    2841.0      0.82245    
    2842.0      0.82261    
    2843.0      0.82276    
    2844.0      0.82291    
    2845.0      0.82306    
    2846.0      0.82322    
    2847.0      0.82337    
    2848.0      0.82352    
    2849.0      0.82368    
    2850.0      0.82383    
    2851.0      0.82398    
    2852.0      0.82413    
    2853.0      0.82428    
    2854.0      0.82443    
    2855.0      0.82459    
    2856.0      0.82474    
    2857.0      0.82489    
    2858.0      0.82504    
    2859.0      0.82519    
    2860.0      0.82534    
    2861.0      0.82549    
    2862.0      0.82564    
    2863.0      0.82579    
    2864.0      0.82594    
    2865.0      0.82609    
    2866.0      0.82624    
    2867.0      0.82639    
    2868.0      0.82654    
    2869.0      0.82669    
    2870.0      0.82684    
    2871.0      0.82698    
    2872.0      0.82713    
    2873.0      0.82728    
    2874.0      0.82743    
    2875.0      0.82758    
    2876.0      0.82772    
    2877.0      0.82787    
    2878.0      0.82802    
    2879.0      0.82817    
    2880.0      0.82831    
    2881.0      0.82846    
    2882.0      0.82861    
    2883.0      0.82875    
    2884.0      0.82890    
    2885.0      0.82905    
    2886.0      0.82919    
    2887.0      0.82934    
    2888.0      0.82949    
    2889.0      0.82963    
    2890.0      0.82978    
    2891.0      0.82993    
    2892.0      0.83007    
    2893.0      0.83022    
    2894.0      0.83036    
    2895.0      0.83051    
    2896.0      0.83065    
    2897.0      0.83080    
    2898.0      0.83094    
    2899.0      0.83108    
    2900.0      0.83123    
    2901.0      0.83137    
    2902.0      0.83152    
    2903.0      0.83166    
    2904.0      0.83180    
    2905.0      0.83195    
    2906.0      0.83209    
    2907.0      0.83223    
    2908.0      0.83238    
    2909.0      0.83252    
    2910.0      0.83266    
    2911.0      0.83281    
    2912.0      0.83295    
    2913.0      0.83309    
    2914.0      0.83323    
    2915.0      0.83337    
    2916.0      0.83352    
    2917.0      0.83366    
    2918.0      0.83380    
    2919.0      0.83394    
    2920.0      0.83408    
    2921.0      0.83422    
    2922.0      0.83436    
    2923.0      0.83450    
    2924.0      0.83464    
    2925.0      0.83478    
    2926.0      0.83492    
    2927.0      0.83506    
    2928.0      0.83520    
    2929.0      0.83534    
    2930.0      0.83548    
    2931.0      0.83562    
    2932.0      0.83576    
    2933.0      0.83590    
    2934.0      0.83604    
    2935.0      0.83618    
    2936.0      0.83632    
    2937.0      0.83646    
    2938.0      0.83660    
    2939.0      0.83673    
    2940.0      0.83687    
    2941.0      0.83701    
    2942.0      0.83715    
    2943.0      0.83729    
    2944.0      0.83742    
    2945.0      0.83756    
    2946.0      0.83770    
    2947.0      0.83784    
    2948.0      0.83797    
    2949.0      0.83811    
    2950.0      0.83825    
    2951.0      0.83838    
    2952.0      0.83852    
    2953.0      0.83866    
    2954.0      0.83879    
    2955.0      0.83893    
    2956.0      0.83907    
    2957.0      0.83920    
    2958.0      0.83934    
    2959.0      0.83947    
    2960.0      0.83961    
    2961.0      0.83974    
    2962.0      0.83988    
    2963.0      0.84001    
    2964.0      0.84015    
    2965.0      0.84028    
    2966.0      0.84042    
    2967.0      0.84055    
    2968.0      0.84068    
    2969.0      0.84082    
    2970.0      0.84095    
    2971.0      0.84109    
    2972.0      0.84122    
    2973.0      0.84135    
    2974.0      0.84149    
    2975.0      0.84162    
    2976.0      0.84175    
    2977.0      0.84189    
    2978.0      0.84202    
    2979.0      0.84215    
    2980.0      0.84228    
    2981.0      0.84242    
    2982.0      0.84255    
    2983.0      0.84268    
    2984.0      0.84281    
    2985.0      0.84294    
    2986.0      0.84308    
    2987.0      0.84321    
    2988.0      0.84334    
    2989.0      0.84347    
    2990.0      0.84360    
    2991.0      0.84373    
    2992.0      0.84386    
    2993.0      0.84399    
    2994.0      0.84412    
    2995.0      0.84426    
    2996.0      0.84439    
    2997.0      0.84452    
    2998.0      0.84465    
    2999.0      0.84478    
    3000.0      0.84491    
    3001.0      0.84503    
    3002.0      0.84516    
    3003.0      0.84529    
    3004.0      0.84542    
    3005.0      0.84555    
    3006.0      0.84568    
    3007.0      0.84581    
    3008.0      0.84594    
    3009.0      0.84607    
    3010.0      0.84619    
    3011.0      0.84632    
    3012.0      0.84645    
    3013.0      0.84658    
    3014.0      0.84671    
    3015.0      0.84683    
    3016.0      0.84696    
    3017.0      0.84709    
    3018.0      0.84722    
    3019.0      0.84734    
    3020.0      0.84747    
    3021.0      0.84760    
    3022.0      0.84772    
    3023.0      0.84785    
    3024.0      0.84798    
    3025.0      0.84810    
    3026.0      0.84823    
    3027.0      0.84836    
    3028.0      0.84848    
    3029.0      0.84861    
    3030.0      0.84873    
    3031.0      0.84886    
    3032.0      0.84898    
    3033.0      0.84911    
    3034.0      0.84924    
    3035.0      0.84936    
    3036.0      0.84949    
    3037.0      0.84961    
    3038.0      0.84974    
    3039.0      0.84986    
    3040.0      0.84998    
    3041.0      0.85011    
    3042.0      0.85023    
    3043.0      0.85036    
    3044.0      0.85048    
    3045.0      0.85061    
    3046.0      0.85073    
    3047.0      0.85085    
    3048.0      0.85098    
    3049.0      0.85110    
    3050.0      0.85122    
    3051.0      0.85135    
    3052.0      0.85147    
    3053.0      0.85159    
    3054.0      0.85171    
    3055.0      0.85184    
    3056.0      0.85196    
    3057.0      0.85208    
    3058.0      0.85220    
    3059.0      0.85232    
    3060.0      0.85245    
    3061.0      0.85257    
    3062.0      0.85269    
    3063.0      0.85281    
    3064.0      0.85293    
    3065.0      0.85305    
    3066.0      0.85317    
    3067.0      0.85330    
    3068.0      0.85342    
    3069.0      0.85354    
    3070.0      0.85366    
    3071.0      0.85378    
    3072.0      0.85390    
    3073.0      0.85402    
    3074.0      0.85414    
    3075.0      0.85426    
    3076.0      0.85438    
    3077.0      0.85450    
    3078.0      0.85462    
    3079.0      0.85474    
    3080.0      0.85486    
    3081.0      0.85498    
    3082.0      0.85510    
    3083.0      0.85522    
    3084.0      0.85533    
    3085.0      0.85545    
    3086.0      0.85557    
    3087.0      0.85569    
    3088.0      0.85581    
    3089.0      0.85593    
    3090.0      0.85605    
    3091.0      0.85616    
    3092.0      0.85628    
    3093.0      0.85640    
    3094.0      0.85652    
    3095.0      0.85663    
    3096.0      0.85675    
    3097.0      0.85687    
    3098.0      0.85699    
    3099.0      0.85710    
    3100.0      0.85722    
    3101.0      0.85734    
    3102.0      0.85745    
    3103.0      0.85757    
    3104.0      0.85769    
    3105.0      0.85780    
    3106.0      0.85792    
    3107.0      0.85804    
    3108.0      0.85815    
    3109.0      0.85827    
    3110.0      0.85838    
    3111.0      0.85850    
    3112.0      0.85861    
    3113.0      0.85873    
    3114.0      0.85884    
    3115.0      0.85896    
    3116.0      0.85907    
    3117.0      0.85919    
    3118.0      0.85930    
    3119.0      0.85942    
    3120.0      0.85953    
    3121.0      0.85965    
    3122.0      0.85976    
    3123.0      0.85988    
    3124.0      0.85999    
    3125.0      0.86010    
    3126.0      0.86022    
    3127.0      0.86033    
    3128.0      0.86045    
    3129.0      0.86056    
    3130.0      0.86067    
    3131.0      0.86079    
    3132.0      0.86090    
    3133.0      0.86101    
    3134.0      0.86112    
    3135.0      0.86124    
    3136.0      0.86135    
    3137.0      0.86146    
    3138.0      0.86158    
    3139.0      0.86169    
    3140.0      0.86180    
    3141.0      0.86191    
    3142.0      0.86202    
    3143.0      0.86214    
    3144.0      0.86225    
    3145.0      0.86236    
    3146.0      0.86247    
    3147.0      0.86258    
    3148.0      0.86269    
    3149.0      0.86281    
    3150.0      0.86292    
    3151.0      0.86303    
    3152.0      0.86314    
    3153.0      0.86325    
    3154.0      0.86336    
    3155.0      0.86347    
    3156.0      0.86358    
    3157.0      0.86369    
    3158.0      0.86380    
    3159.0      0.86391    
    3160.0      0.86402    
    3161.0      0.86413    
    3162.0      0.86424    
    3163.0      0.86435    
    3164.0      0.86446    
    3165.0      0.86457    
    3166.0      0.86468    
    3167.0      0.86479    
    3168.0      0.86490    
    3169.0      0.86500    
    3170.0      0.86511    
    3171.0      0.86522    
    3172.0      0.86533    
    3173.0      0.86544    
    3174.0      0.86555    
    3175.0      0.86566    
    3176.0      0.86576    
    3177.0      0.86587    
    3178.0      0.86598    
    3179.0      0.86609    
    3180.0      0.86620    
    3181.0      0.86630    
    3182.0      0.86641    
    3183.0      0.86652    
    3184.0      0.86663    
    3185.0      0.86673    
    3186.0      0.86684    
    3187.0      0.86695    
    3188.0      0.86705    
    3189.0      0.86716    
    3190.0      0.86727    
    3191.0      0.86737    
    3192.0      0.86748    
    3193.0      0.86759    
    3194.0      0.86769    
    3195.0      0.86780    
    3196.0      0.86790    
    3197.0      0.86801    
    3198.0      0.86812    
    3199.0      0.86822    
    3200.0      0.86833    
    3201.0      0.86843    
    3202.0      0.86854    
    3203.0      0.86864    
    3204.0      0.86875    
    3205.0      0.86885    
    3206.0      0.86896    
    3207.0      0.86906    
    3208.0      0.86917    
    3209.0      0.86927    
    3210.0      0.86938    
    3211.0      0.86948    
    3212.0      0.86959    
    3213.0      0.86969    
    3214.0      0.86979    
    3215.0      0.86990    
    3216.0      0.87000    
    3217.0      0.87011    
    3218.0      0.87021    
    3219.0      0.87031    
    3220.0      0.87042    
    3221.0      0.87052    
    3222.0      0.87062    
    3223.0      0.87073    
    3224.0      0.87083    
    3225.0      0.87093    
    3226.0      0.87103    
    3227.0      0.87114    
    3228.0      0.87124    
    3229.0      0.87134    
    3230.0      0.87144    
    3231.0      0.87155    
    3232.0      0.87165    
    3233.0      0.87175    
    3234.0      0.87185    
    3235.0      0.87195    
    3236.0      0.87206    
    3237.0      0.87216    
    3238.0      0.87226    
    3239.0      0.87236    
    3240.0      0.87246    
    3241.0      0.87256    
    3242.0      0.87267    
    3243.0      0.87277    
    3244.0      0.87287    
    3245.0      0.87297    
    3246.0      0.87307    
    3247.0      0.87317    
    3248.0      0.87327    
    3249.0      0.87337    
    3250.0      0.87347    
    3251.0      0.87357    
    3252.0      0.87367    
    3253.0      0.87377    
    3254.0      0.87387    
    3255.0      0.87397    
    3256.0      0.87407    
    3257.0      0.87417    
    3258.0      0.87427    
    3259.0      0.87437    
    3260.0      0.87447    
    3261.0      0.87457    
    3262.0      0.87467    
    3263.0      0.87477    
    3264.0      0.87487    
    3265.0      0.87496    
    3266.0      0.87506    
    3267.0      0.87516    
    3268.0      0.87526    
    3269.0      0.87536    
    3270.0      0.87546    
    3271.0      0.87555    
    3272.0      0.87565    
    3273.0      0.87575    
    3274.0      0.87585    
    3275.0      0.87595    
    3276.0      0.87604    
    3277.0      0.87614    
    3278.0      0.87624    
    3279.0      0.87634    
    3280.0      0.87643    
    3281.0      0.87653    
    3282.0      0.87663    
    3283.0      0.87673    
    3284.0      0.87682    
    3285.0      0.87692    
    3286.0      0.87702    
    3287.0      0.87711    
    3288.0      0.87721    
    3289.0      0.87731    
    3290.0      0.87740    
    3291.0      0.87750    
    3292.0      0.87760    
    3293.0      0.87769    
    3294.0      0.87779    
    3295.0      0.87788    
    3296.0      0.87798    
    3297.0      0.87808    
    3298.0      0.87817    
    3299.0      0.87827    
    3300.0      0.87836    
    3301.0      0.87846    
    3302.0      0.87855    
    3303.0      0.87865    
    3304.0      0.87874    
    3305.0      0.87884    
    3306.0      0.87893    
    3307.0      0.87903    
    3308.0      0.87912    
    3309.0      0.87922    
    3310.0      0.87931    
    3311.0      0.87941    
    3312.0      0.87950    
    3313.0      0.87960    
    3314.0      0.87969    
    3315.0      0.87978    
    3316.0      0.87988    
    3317.0      0.87997    
    3318.0      0.88007    
    3319.0      0.88016    
    3320.0      0.88025    
    3321.0      0.88035    
    3322.0      0.88044    
    3323.0      0.88053    
    3324.0      0.88063    
    3325.0      0.88072    
    3326.0      0.88081    
    3327.0      0.88090    
    3328.0      0.88100    
    3329.0      0.88109    
    3330.0      0.88118    
    3331.0      0.88128    
    3332.0      0.88137    
    3333.0      0.88146    
    3334.0      0.88155    
    3335.0      0.88164    
    3336.0      0.88174    
    3337.0      0.88183    
    3338.0      0.88192    
    3339.0      0.88201    
    3340.0      0.88210    
    3341.0      0.88220    
    3342.0      0.88229    
    3343.0      0.88238    
    3344.0      0.88247    
    3345.0      0.88256    
    3346.0      0.88265    
    3347.0      0.88274    
    3348.0      0.88284    
    3349.0      0.88293    
    3350.0      0.88302    
    3351.0      0.88311    
    3352.0      0.88320    
    3353.0      0.88329    
    3354.0      0.88338    
    3355.0      0.88347    
    3356.0      0.88356    
    3357.0      0.88365    
    3358.0      0.88374    
    3359.0      0.88383    
    3360.0      0.88392    
    3361.0      0.88401    
    3362.0      0.88410    
    3363.0      0.88419    
    3364.0      0.88428    
    3365.0      0.88437    
    3366.0      0.88446    
    3367.0      0.88455    
    3368.0      0.88464    
    3369.0      0.88473    
    3370.0      0.88481    
    3371.0      0.88490    
    3372.0      0.88499    
    3373.0      0.88508    
    3374.0      0.88517    
    3375.0      0.88526    
    3376.0      0.88535    
    3377.0      0.88544    
    3378.0      0.88552    
    3379.0      0.88561    
    3380.0      0.88570    
    3381.0      0.88579    
    3382.0      0.88588    
    3383.0      0.88596    
    3384.0      0.88605    
    3385.0      0.88614    
    3386.0      0.88623    
    3387.0      0.88631    
    3388.0      0.88640    
    3389.0      0.88649    
    3390.0      0.88658    
    3391.0      0.88666    
    3392.0      0.88675    
    3393.0      0.88684    
    3394.0      0.88693    
    3395.0      0.88701    
    3396.0      0.88710    
    3397.0      0.88719    
    3398.0      0.88727    
    3399.0      0.88736    
    3400.0      0.88745    
    3401.0      0.88753    
    3402.0      0.88762    
    3403.0      0.88770    
    3404.0      0.88779    
    3405.0      0.88788    
    3406.0      0.88796    
    3407.0      0.88805    
    3408.0      0.88813    
    3409.0      0.88822    
    3410.0      0.88831    
    3411.0      0.88839    
    3412.0      0.88848    
    3413.0      0.88856    
    3414.0      0.88865    
    3415.0      0.88873    
    3416.0      0.88882    
    3417.0      0.88890    
    3418.0      0.88899    
    3419.0      0.88907    
    3420.0      0.88916    
    3421.0      0.88924    
    3422.0      0.88933    
    3423.0      0.88941    
    3424.0      0.88949    
    3425.0      0.88958    
    3426.0      0.88966    
    3427.0      0.88975    
    3428.0      0.88983    
    3429.0      0.88992    
    3430.0      0.89000    
    3431.0      0.89008    
    3432.0      0.89017    
    3433.0      0.89025    
    3434.0      0.89033    
    3435.0      0.89042    
    3436.0      0.89050    
    3437.0      0.89058    
    3438.0      0.89067    
    3439.0      0.89075    
    3440.0      0.89083    
    3441.0      0.89092    
    3442.0      0.89100    
    3443.0      0.89108    
    3444.0      0.89117    
    3445.0      0.89125    
    3446.0      0.89133    
    3447.0      0.89141    
    3448.0      0.89150    
    3449.0      0.89158    
    3450.0      0.89166    
    3451.0      0.89174    
    3452.0      0.89183    
    3453.0      0.89191    
    3454.0      0.89199    
    3455.0      0.89207    
    3456.0      0.89215    
    3457.0      0.89224    
    3458.0      0.89232    
    3459.0      0.89240    
    3460.0      0.89248    
    3461.0      0.89256    
    3462.0      0.89264    
    3463.0      0.89272    
    3464.0      0.89281    
    3465.0      0.89289    
    3466.0      0.89297    
    3467.0      0.89305    
    3468.0      0.89313    
    3469.0      0.89321    
    3470.0      0.89329    
    3471.0      0.89337    
    3472.0      0.89345    
    3473.0      0.89353    
    3474.0      0.89361    
    3475.0      0.89369    
    3476.0      0.89377    
    3477.0      0.89385    
    3478.0      0.89393    
    3479.0      0.89401    
    3480.0      0.89409    
    3481.0      0.89417    
    3482.0      0.89425    
    3483.0      0.89433    
    3484.0      0.89441    
    3485.0      0.89449    
    3486.0      0.89457    
    3487.0      0.89465    
    3488.0      0.89473    
    3489.0      0.89481    
    3490.0      0.89489    
    3491.0      0.89497    
    3492.0      0.89505    
    3493.0      0.89513    
    3494.0      0.89520    
    3495.0      0.89528    
    3496.0      0.89536    
    3497.0      0.89544    
    3498.0      0.89552    
    3499.0      0.89560    
    3500.0      0.89568    
    3501.0      0.89576    
    3502.0      0.89583    
    3503.0      0.89591    
    3504.0      0.89599    
    3505.0      0.89607    
    3506.0      0.89615    
    3507.0      0.89622    
    3508.0      0.89630    
    3509.0      0.89638    
    3510.0      0.89646    
    3511.0      0.89654    
    3512.0      0.89661    
    3513.0      0.89669    
    3514.0      0.89677    
    3515.0      0.89685    
    3516.0      0.89692    
    3517.0      0.89700    
    3518.0      0.89708    
    3519.0      0.89715    
    3520.0      0.89723    
    3521.0      0.89731    
    3522.0      0.89738    
    3523.0      0.89746    
    3524.0      0.89754    
    3525.0      0.89761    
    3526.0      0.89769    
    3527.0      0.89777    
    3528.0      0.89784    
    3529.0      0.89792    
    3530.0      0.89800    
    3531.0      0.89807    
    3532.0      0.89815    
    3533.0      0.89822    
    3534.0      0.89830    
    3535.0      0.89838    
    3536.0      0.89845    
    3537.0      0.89853    
    3538.0      0.89860    
    3539.0      0.89868    
    3540.0      0.89875    
    3541.0      0.89883    
    3542.0      0.89891    
    3543.0      0.89898    
    3544.0      0.89906    
    3545.0      0.89913    
    3546.0      0.89921    
    3547.0      0.89928    
    3548.0      0.89936    
    3549.0      0.89943    
    3550.0      0.89951    
    3551.0      0.89958    
    3552.0      0.89965    
    3553.0      0.89973    
    3554.0      0.89980    
    3555.0      0.89988    
    3556.0      0.89995    
    3557.0      0.90003    
    3558.0      0.90010    
    3559.0      0.90018    
    3560.0      0.90025    
    3561.0      0.90032    
    3562.0      0.90040    
    3563.0      0.90047    
    3564.0      0.90055    
    3565.0      0.90062    
    3566.0      0.90069    
    3567.0      0.90077    
    3568.0      0.90084    
    3569.0      0.90091    
    3570.0      0.90099    
    3571.0      0.90106    
    3572.0      0.90113    
    3573.0      0.90121    
    3574.0      0.90128    
    3575.0      0.90135    
    3576.0      0.90143    
    3577.0      0.90150    
    3578.0      0.90157    
    3579.0      0.90164    
    3580.0      0.90172    
    3581.0      0.90179    
    3582.0      0.90186    
    3583.0      0.90193    
    3584.0      0.90201    
    3585.0      0.90208    
    3586.0      0.90215    
    3587.0      0.90222    
    3588.0      0.90230    
    3589.0      0.90237    
    3590.0      0.90244    
    3591.0      0.90251    
    3592.0      0.90258    
    3593.0      0.90265    
    3594.0      0.90273    
    3595.0      0.90280    
    3596.0      0.90287    
    3597.0      0.90294    
    3598.0      0.90301    
    3599.0      0.90308    
    3600.0      0.90315    
    3601.0      0.90323    
    3602.0      0.90330    
    3603.0      0.90337    
    3604.0      0.90344    
    3605.0      0.90351    
    3606.0      0.90358    
    3607.0      0.90365    
    3608.0      0.90372    
    3609.0      0.90379    
    3610.0      0.90386    
    3611.0      0.90393    
    3612.0      0.90400    
    3613.0      0.90408    
    3614.0      0.90415    
    3615.0      0.90422    
    3616.0      0.90429    
    3617.0      0.90436    
    3618.0      0.90443    
    3619.0      0.90450    
    3620.0      0.90457    
    3621.0      0.90464    
    3622.0      0.90471    
    3623.0      0.90478    
    3624.0      0.90485    
    3625.0      0.90492    
    3626.0      0.90499    
    3627.0      0.90505    
    3628.0      0.90512    
    3629.0      0.90519    
    3630.0      0.90526    
    3631.0      0.90533    
    3632.0      0.90540    
    3633.0      0.90547    
    3634.0      0.90554    
    3635.0      0.90561    
    3636.0      0.90568    
    3637.0      0.90575    
    3638.0      0.90582    
    3639.0      0.90588    
    3640.0      0.90595    
    3641.0      0.90602    
    3642.0      0.90609    
    3643.0      0.90616    
    3644.0      0.90623    
    3645.0      0.90629    
    3646.0      0.90636    
    3647.0      0.90643    
    3648.0      0.90650    
    3649.0      0.90657    
    3650.0      0.90664    
    3651.0      0.90670    
    3652.0      0.90677    
    3653.0      0.90684    
    3654.0      0.90691    
    3655.0      0.90697    
    3656.0      0.90704    
    3657.0      0.90711    
    3658.0      0.90718    
    3659.0      0.90724    
    3660.0      0.90731    
    3661.0      0.90738    
    3662.0      0.90745    
    3663.0      0.90751    
    3664.0      0.90758    
    3665.0      0.90765    
    3666.0      0.90771    
    3667.0      0.90778    
    3668.0      0.90785    
    3669.0      0.90791    
    3670.0      0.90798    
    3671.0      0.90805    
    3672.0      0.90812    
    3673.0      0.90818    
    3674.0      0.90825    
    3675.0      0.90832    
    3676.0      0.90838    
    3677.0      0.90845    
    3678.0      0.90851    
    3679.0      0.90858    
    3680.0      0.90865    
    3681.0      0.90871    
    3682.0      0.90878    
    3683.0      0.90884    
    3684.0      0.90891    
    3685.0      0.90898    
    3686.0      0.90904    
    3687.0      0.90911    
    3688.0      0.90917    
    3689.0      0.90924    
    3690.0      0.90930    
    3691.0      0.90937    
    3692.0      0.90944    
    3693.0      0.90950    
    3694.0      0.90957    
    3695.0      0.90963    
    3696.0      0.90970    
    3697.0      0.90976    
    3698.0      0.90983    
    3699.0      0.90989    
    3700.0      0.90996    
    3701.0      0.91002    
    3702.0      0.91009    
    3703.0      0.91015    
    3704.0      0.91022    
    3705.0      0.91028    
    3706.0      0.91034    
    3707.0      0.91041    
    3708.0      0.91047    
    3709.0      0.91054    
    3710.0      0.91060    
    3711.0      0.91067    
    3712.0      0.91073    
    3713.0      0.91080    
    3714.0      0.91086    
    3715.0      0.91092    
    3716.0      0.91099    
    3717.0      0.91105    
    3718.0      0.91111    
    3719.0      0.91118    
    3720.0      0.91124    
    3721.0      0.91131    
    3722.0      0.91137    
    3723.0      0.91143    
    3724.0      0.91150    
    3725.0      0.91156    
    3726.0      0.91162    
    3727.0      0.91169    
    3728.0      0.91175    
    3729.0      0.91181    
    3730.0      0.91188    
    3731.0      0.91194    
    3732.0      0.91200    
    3733.0      0.91207    
    3734.0      0.91213    
    3735.0      0.91219    
    3736.0      0.91225    
    3737.0      0.91232    
    3738.0      0.91238    
    3739.0      0.91244    
    3740.0      0.91250    
    3741.0      0.91257    
    3742.0      0.91263    
    3743.0      0.91269    
    3744.0      0.91275    
    3745.0      0.91282    
    3746.0      0.91288    
    3747.0      0.91294    
    3748.0      0.91300    
    3749.0      0.91307    
    3750.0      0.91313    
    3751.0      0.91319    
    3752.0      0.91325    
    3753.0      0.91331    
    3754.0      0.91337    
    3755.0      0.91344    
    3756.0      0.91350    
    3757.0      0.91356    
    3758.0      0.91362    
    3759.0      0.91368    
    3760.0      0.91374    
    3761.0      0.91381    
    3762.0      0.91387    
    3763.0      0.91393    
    3764.0      0.91399    
    3765.0      0.91405    
    3766.0      0.91411    
    3767.0      0.91417    
    3768.0      0.91423    
    3769.0      0.91429    
    3770.0      0.91435    
    3771.0      0.91442    
    3772.0      0.91448    
    3773.0      0.91454    
    3774.0      0.91460    
    3775.0      0.91466    
    3776.0      0.91472    
    3777.0      0.91478    
    3778.0      0.91484    
    3779.0      0.91490    
    3780.0      0.91496    
    3781.0      0.91502    
    3782.0      0.91508    
    3783.0      0.91514    
    3784.0      0.91520    
    3785.0      0.91526    
    3786.0      0.91532    
    3787.0      0.91538    
    3788.0      0.91544    
    3789.0      0.91550    
    3790.0      0.91556    
    3791.0      0.91562    
    3792.0      0.91568    
    3793.0      0.91574    
    3794.0      0.91580    
    3795.0      0.91586    
    3796.0      0.91592    
    3797.0      0.91598    
    3798.0      0.91604    
    3799.0      0.91610    
    3800.0      0.91615    
    3801.0      0.91621    
    3802.0      0.91627    
    3803.0      0.91633    
    3804.0      0.91639    
    3805.0      0.91645    
    3806.0      0.91651    
    3807.0      0.91657    
    3808.0      0.91663    
    3809.0      0.91668    
    3810.0      0.91674    
    3811.0      0.91680    
    3812.0      0.91686    
    3813.0      0.91692    
    3814.0      0.91698    
    3815.0      0.91704    
    3816.0      0.91709    
    3817.0      0.91715    
    3818.0      0.91721    
    3819.0      0.91727    
    3820.0      0.91733    
    3821.0      0.91739    
    3822.0      0.91744    
    3823.0      0.91750    
    3824.0      0.91756    
    3825.0      0.91762    
    3826.0      0.91767    
    3827.0      0.91773    
    3828.0      0.91779    
    3829.0      0.91785    
    3830.0      0.91791    
    3831.0      0.91796    
    3832.0      0.91802    
    3833.0      0.91808    
    3834.0      0.91814    
    3835.0      0.91819    
    3836.0      0.91825    
    3837.0      0.91831    
    3838.0      0.91836    
    3839.0      0.91842    
    3840.0      0.91848    
    3841.0      0.91854    
    3842.0      0.91859    
    3843.0      0.91865    
    3844.0      0.91871    
    3845.0      0.91876    
    3846.0      0.91882    
    3847.0      0.91888    
    3848.0      0.91893    
    3849.0      0.91899    
    3850.0      0.91905    
    3851.0      0.91910    
    3852.0      0.91916    
    3853.0      0.91922    
    3854.0      0.91927    
    3855.0      0.91933    
    3856.0      0.91938    
    3857.0      0.91944    
    3858.0      0.91950    
    3859.0      0.91955    
    3860.0      0.91961    
    3861.0      0.91967    
    3862.0      0.91972    
    3863.0      0.91978    
    3864.0      0.91983    
    3865.0      0.91989    
    3866.0      0.91994    
    3867.0      0.92000    
    3868.0      0.92006    
    3869.0      0.92011    
    3870.0      0.92017    
    3871.0      0.92022    
    3872.0      0.92028    
    3873.0      0.92033    
    3874.0      0.92039    
    3875.0      0.92044    
    3876.0      0.92050    
    3877.0      0.92056    
    3878.0      0.92061    
    3879.0      0.92067    
    3880.0      0.92072    
    3881.0      0.92078    
    3882.0      0.92083    
    3883.0      0.92089    
    3884.0      0.92094    
    3885.0      0.92099    
    3886.0      0.92105    
    3887.0      0.92110    
    3888.0      0.92116    
    3889.0      0.92121    
    3890.0      0.92127    
    3891.0      0.92132    
    3892.0      0.92138    
    3893.0      0.92143    
    3894.0      0.92149    
    3895.0      0.92154    
    3896.0      0.92159    
    3897.0      0.92165    
    3898.0      0.92170    
    3899.0      0.92176    
    3900.0      0.92181    
    3901.0      0.92187    
    3902.0      0.92192    
    3903.0      0.92197    
    3904.0      0.92203    
    3905.0      0.92208    
    3906.0      0.92213    
    3907.0      0.92219    
    3908.0      0.92224    
    3909.0      0.92230    
    3910.0      0.92235    
    3911.0      0.92240    
    3912.0      0.92246    
    3913.0      0.92251    
    3914.0      0.92256    
    3915.0      0.92262    
    3916.0      0.92267    
    3917.0      0.92272    
    3918.0      0.92278    
    3919.0      0.92283    
    3920.0      0.92288    
    3921.0      0.92294    
    3922.0      0.92299    
    3923.0      0.92304    
    3924.0      0.92309    
    3925.0      0.92315    
    3926.0      0.92320    
    3927.0      0.92325    
    3928.0      0.92331    
    3929.0      0.92336    
    3930.0      0.92341    
    3931.0      0.92346    
    3932.0      0.92352    
    3933.0      0.92357    
    3934.0      0.92362    
    3935.0      0.92367    
    3936.0      0.92373    
    3937.0      0.92378    
    3938.0      0.92383    
    3939.0      0.92388    
    3940.0      0.92394    
    3941.0      0.92399    
    3942.0      0.92404    
    3943.0      0.92409    
    3944.0      0.92414    
    3945.0      0.92420    
    3946.0      0.92425    
    3947.0      0.92430    
    3948.0      0.92435    
    3949.0      0.92440    
    3950.0      0.92445    
    3951.0      0.92451    
    3952.0      0.92456    
    3953.0      0.92461    
    3954.0      0.92466    
    3955.0      0.92471    
    3956.0      0.92476    
    3957.0      0.92481    
    3958.0      0.92487    
    3959.0      0.92492    
    3960.0      0.92497    
    3961.0      0.92502    
    3962.0      0.92507    
    3963.0      0.92512    
    3964.0      0.92517    
    3965.0      0.92522    
    3966.0      0.92528    
    3967.0      0.92533    
    3968.0      0.92538    
    3969.0      0.92543    
    3970.0      0.92548    
    3971.0      0.92553    
    3972.0      0.92558    
    3973.0      0.92563    
    3974.0      0.92568    
    3975.0      0.92573    
    3976.0      0.92578    
    3977.0      0.92583    
    3978.0      0.92588    
    3979.0      0.92593    
    3980.0      0.92598    
    3981.0      0.92603    
    3982.0      0.92609    
    3983.0      0.92614    
    3984.0      0.92619    
    3985.0      0.92624    
    3986.0      0.92629    
    3987.0      0.92634    
    3988.0      0.92639    
    3989.0      0.92644    
    3990.0      0.92649    
    3991.0      0.92654    
    3992.0      0.92659    
    3993.0      0.92664    
    3994.0      0.92669    
    3995.0      0.92674    
    3996.0      0.92678    
    3997.0      0.92683    
    3998.0      0.92688    
    3999.0      0.92693    
    4000.0      0.92698    
    4001.0      0.92703    
    4002.0      0.92708    
    4003.0      0.92713    
    4004.0      0.92718    
    4005.0      0.92723    
    4006.0      0.92728    
    4007.0      0.92733    
    4008.0      0.92738    
    4009.0      0.92743    
    4010.0      0.92748    
    4011.0      0.92752    
    4012.0      0.92757    
    4013.0      0.92762    
    4014.0      0.92767    
    4015.0      0.92772    
    4016.0      0.92777    
    4017.0      0.92782    
    4018.0      0.92787    
    4019.0      0.92792    
    4020.0      0.92796    
    4021.0      0.92801    
    4022.0      0.92806    
    4023.0      0.92811    
    4024.0      0.92816    
    4025.0      0.92821    
    4026.0      0.92825    
    4027.0      0.92830    
    4028.0      0.92835    
    4029.0      0.92840    
    4030.0      0.92845    
    4031.0      0.92850    
    4032.0      0.92854    
    4033.0      0.92859    
    4034.0      0.92864    
    4035.0      0.92869    
    4036.0      0.92874    
    4037.0      0.92878    
    4038.0      0.92883    
    4039.0      0.92888    
    4040.0      0.92893    
    4041.0      0.92898    
    4042.0      0.92902    
    4043.0      0.92907    
    4044.0      0.92912    
    4045.0      0.92917    
    4046.0      0.92921    
    4047.0      0.92926    
    4048.0      0.92931    
    4049.0      0.92936    
    4050.0      0.92940    
    4051.0      0.92945    
    4052.0      0.92950    
    4053.0      0.92955    
    4054.0      0.92959    
    4055.0      0.92964    
    4056.0      0.92969    
    4057.0      0.92973    
    4058.0      0.92978    
    4059.0      0.92983    
    4060.0      0.92988    
    4061.0      0.92992    
    4062.0      0.92997    
    4063.0      0.93002    
    4064.0      0.93006    
    4065.0      0.93011    
    4066.0      0.93016    
    4067.0      0.93020    
    4068.0      0.93025    
    4069.0      0.93030    
    4070.0      0.93034    
    4071.0      0.93039    
    4072.0      0.93044    
    4073.0      0.93048    
    4074.0      0.93053    
    4075.0      0.93057    
    4076.0      0.93062    
    4077.0      0.93067    
    4078.0      0.93071    
    4079.0      0.93076    
    4080.0      0.93081    
    4081.0      0.93085    
    4082.0      0.93090    
    4083.0      0.93094    
    4084.0      0.93099    
    4085.0      0.93104    
    4086.0      0.93108    
    4087.0      0.93113    
    4088.0      0.93117    
    4089.0      0.93122    
    4090.0      0.93126    
    4091.0      0.93131    
    4092.0      0.93136    
    4093.0      0.93140    
    4094.0      0.93145    
    4095.0      0.93149    
    4096.0      0.93154    
    4097.0      0.93158    
    4098.0      0.93163    
    4099.0      0.93167    
    4100.0      0.93172    
    4101.0      0.93177    
    4102.0      0.93181    
    4103.0      0.93186    
    4104.0      0.93190    
    4105.0      0.93195    
    4106.0      0.93199    
    4107.0      0.93204    
    4108.0      0.93208    
    4109.0      0.93213    
    4110.0      0.93217    
    4111.0      0.93222    
    4112.0      0.93226    
    4113.0      0.93231    
    4114.0      0.93235    
    4115.0      0.93240    
    4116.0      0.93244    
    4117.0      0.93249    
    4118.0      0.93253    
    4119.0      0.93257    
    4120.0      0.93262    
    4121.0      0.93266    
    4122.0      0.93271    
    4123.0      0.93275    
    4124.0      0.93280    
    4125.0      0.93284    
    4126.0      0.93289    
    4127.0      0.93293    
    4128.0      0.93297    
    4129.0      0.93302    
    4130.0      0.93306    
    4131.0      0.93311    
    4132.0      0.93315    
    4133.0      0.93320    
    4134.0      0.93324    
    4135.0      0.93328    
    4136.0      0.93333    
    4137.0      0.93337    
    4138.0      0.93342    
    4139.0      0.93346    
    4140.0      0.93350    
    4141.0      0.93355    
    4142.0      0.93359    
    4143.0      0.93363    
    4144.0      0.93368    
    4145.0      0.93372    
    4146.0      0.93377    
    4147.0      0.93381    
    4148.0      0.93385    
    4149.0      0.93390    
    4150.0      0.93394    
    4151.0      0.93398    
    4152.0      0.93403    
    4153.0      0.93407    
    4154.0      0.93411    
    4155.0      0.93416    
    4156.0      0.93420    
    4157.0      0.93424    
    4158.0      0.93429    
    4159.0      0.93433    
    4160.0      0.93437    
    4161.0      0.93441    
    4162.0      0.93446    
    4163.0      0.93450    
    4164.0      0.93454    
    4165.0      0.93459    
    4166.0      0.93463    
    4167.0      0.93467    
    4168.0      0.93472    
    4169.0      0.93476    
    4170.0      0.93480    
    4171.0      0.93484    
    4172.0      0.93489    
    4173.0      0.93493    
    4174.0      0.93497    
    4175.0      0.93501    
    4176.0      0.93506    
    4177.0      0.93510    
    4178.0      0.93514    
    4179.0      0.93518    
    4180.0      0.93523    
    4181.0      0.93527    
    4182.0      0.93531    
    4183.0      0.93535    
    4184.0      0.93540    
    4185.0      0.93544    
    4186.0      0.93548    
    4187.0      0.93552    
    4188.0      0.93556    
    4189.0      0.93561    
    4190.0      0.93565    
    4191.0      0.93569    
    4192.0      0.93573    
    4193.0      0.93577    
    4194.0      0.93582    
    4195.0      0.93586    
    4196.0      0.93590    
    4197.0      0.93594    
    4198.0      0.93598    
    4199.0      0.93602    
    4200.0      0.93607    
    4201.0      0.93611    
    4202.0      0.93615    
    4203.0      0.93619    
    4204.0      0.93623    
    4205.0      0.93627    
    4206.0      0.93631    
    4207.0      0.93636    
    4208.0      0.93640    
    4209.0      0.93644    
    4210.0      0.93648    
    4211.0      0.93652    
    4212.0      0.93656    
    4213.0      0.93660    
    4214.0      0.93664    
    4215.0      0.93669    
    4216.0      0.93673    
    4217.0      0.93677    
    4218.0      0.93681    
    4219.0      0.93685    
    4220.0      0.93689    
    4221.0      0.93693    
    4222.0      0.93697    
    4223.0      0.93701    
    4224.0      0.93705    
    4225.0      0.93710    
    4226.0      0.93714    
    4227.0      0.93718    
    4228.0      0.93722    
    4229.0      0.93726    
    4230.0      0.93730    
    4231.0      0.93734    
    4232.0      0.93738    
    4233.0      0.93742    
    4234.0      0.93746    
    4235.0      0.93750    
    4236.0      0.93754    
    4237.0      0.93758    
    4238.0      0.93762    
    4239.0      0.93766    
    4240.0      0.93770    
    4241.0      0.93774    
    4242.0      0.93778    
    4243.0      0.93782    
    4244.0      0.93786    
    4245.0      0.93790    
    4246.0      0.93794    
    4247.0      0.93798    
    4248.0      0.93802    
    4249.0      0.93806    
    4250.0      0.93810    
    4251.0      0.93814    
    4252.0      0.93818    
    4253.0      0.93822    
    4254.0      0.93826    
    4255.0      0.93830    
    4256.0      0.93834    
    4257.0      0.93838    
    4258.0      0.93842    
    4259.0      0.93846    
    4260.0      0.93850    
    4261.0      0.93854    
    4262.0      0.93858    
    4263.0      0.93862    
    4264.0      0.93866    
    4265.0      0.93870    
    4266.0      0.93874    
    4267.0      0.93878    
    4268.0      0.93882    
    4269.0      0.93886    
    4270.0      0.93889    
    4271.0      0.93893    
    4272.0      0.93897    
    4273.0      0.93901    
    4274.0      0.93905    
    4275.0      0.93909    
    4276.0      0.93913    
    4277.0      0.93917    
    4278.0      0.93921    
    4279.0      0.93925    
    4280.0      0.93929    
    4281.0      0.93932    
    4282.0      0.93936    
    4283.0      0.93940    
    4284.0      0.93944    
    4285.0      0.93948    
    4286.0      0.93952    
    4287.0      0.93956    
    4288.0      0.93960    
    4289.0      0.93963    
    4290.0      0.93967    
    4291.0      0.93971    
    4292.0      0.93975    
    4293.0      0.93979    
    4294.0      0.93983    
    4295.0      0.93986    
    4296.0      0.93990    
    4297.0      0.93994    
    4298.0      0.93998    
    4299.0      0.94002    
    4300.0      0.94006    
    4301.0      0.94009    
    4302.0      0.94013    
    4303.0      0.94017    
    4304.0      0.94021    
    4305.0      0.94025    
    4306.0      0.94029    
    4307.0      0.94032    
    4308.0      0.94036    
    4309.0      0.94040    
    4310.0      0.94044    
    4311.0      0.94048    
    4312.0      0.94051    
    4313.0      0.94055    
    4314.0      0.94059    
    4315.0      0.94063    
    4316.0      0.94067    
    4317.0      0.94070    
    4318.0      0.94074    
    4319.0      0.94078    
    4320.0      0.94082    
    4321.0      0.94085    
    4322.0      0.94089    
    4323.0      0.94093    
    4324.0      0.94097    
    4325.0      0.94100    
    4326.0      0.94104    
    4327.0      0.94108    
    4328.0      0.94112    
    4329.0      0.94115    
    4330.0      0.94119    
    4331.0      0.94123    
    4332.0      0.94127    
    4333.0      0.94130    
    4334.0      0.94134    
    4335.0      0.94138    
    4336.0      0.94141    
    4337.0      0.94145    
    4338.0      0.94149    
    4339.0      0.94153    
    4340.0      0.94156    
    4341.0      0.94160    
    4342.0      0.94164    
    4343.0      0.94167    
    4344.0      0.94171    
    4345.0      0.94175    
    4346.0      0.94178    
    4347.0      0.94182    
    4348.0      0.94186    
    4349.0      0.94189    
    4350.0      0.94193    
    4351.0      0.94197    
    4352.0      0.94200    
    4353.0      0.94204    
    4354.0      0.94208    
    4355.0      0.94211    
    4356.0      0.94215    
    4357.0      0.94219    
    4358.0      0.94222    
    4359.0      0.94226    
    4360.0      0.94230    
    4361.0      0.94233    
    4362.0      0.94237    
    4363.0      0.94241    
    4364.0      0.94244    
    4365.0      0.94248    
    4366.0      0.94251    
    4367.0      0.94255    
    4368.0      0.94259    
    4369.0      0.94262    
    4370.0      0.94266    
    4371.0      0.94270    
    4372.0      0.94273    
    4373.0      0.94277    
    4374.0      0.94280    
    4375.0      0.94284    
    4376.0      0.94288    
    4377.0      0.94291    
    4378.0      0.94295    
    4379.0      0.94298    
    4380.0      0.94302    
    4381.0      0.94305    
    4382.0      0.94309    
    4383.0      0.94313    
    4384.0      0.94316    
    4385.0      0.94320    
    4386.0      0.94323    
    4387.0      0.94327    
    4388.0      0.94330    
    4389.0      0.94334    
    4390.0      0.94338    
    4391.0      0.94341    
    4392.0      0.94345    
    4393.0      0.94348    
    4394.0      0.94352    
    4395.0      0.94355    
    4396.0      0.94359    
    4397.0      0.94362    
    4398.0      0.94366    
    4399.0      0.94369    
    4400.0      0.94373    
    4401.0      0.94377    
    4402.0      0.94380    
    4403.0      0.94384    
    4404.0      0.94387    
    4405.0      0.94391    
    4406.0      0.94394    
    4407.0      0.94398    
    4408.0      0.94401    
    4409.0      0.94405    
    4410.0      0.94408    
    4411.0      0.94412    
    4412.0      0.94415    
    4413.0      0.94419    
    4414.0      0.94422    
    4415.0      0.94426    
    4416.0      0.94429    
    4417.0      0.94432    
    4418.0      0.94436    
    4419.0      0.94439    
    4420.0      0.94443    
    4421.0      0.94446    
    4422.0      0.94450    
    4423.0      0.94453    
    4424.0      0.94457    
    4425.0      0.94460    
    4426.0      0.94464    
    4427.0      0.94467    
    4428.0      0.94471    
    4429.0      0.94474    
    4430.0      0.94477    
    4431.0      0.94481    
    4432.0      0.94484    
    4433.0      0.94488    
    4434.0      0.94491    
    4435.0      0.94495    
    4436.0      0.94498    
    4437.0      0.94501    
    4438.0      0.94505    
    4439.0      0.94508    
    4440.0      0.94512    
    4441.0      0.94515    
    4442.0      0.94518    
    4443.0      0.94522    
    4444.0      0.94525    
    4445.0      0.94529    
    4446.0      0.94532    
    4447.0      0.94535    
    4448.0      0.94539    
    4449.0      0.94542    
    4450.0      0.94546    
    4451.0      0.94549    
    4452.0      0.94552    
    4453.0      0.94556    
    4454.0      0.94559    
    4455.0      0.94562    
    4456.0      0.94566    
    4457.0      0.94569    
    4458.0      0.94573    
    4459.0      0.94576    
    4460.0      0.94579    
    4461.0      0.94583    
    4462.0      0.94586    
    4463.0      0.94589    
    4464.0      0.94593    
    4465.0      0.94596    
    4466.0      0.94599    
    4467.0      0.94603    
    4468.0      0.94606    
    4469.0      0.94609    
    4470.0      0.94613    
    4471.0      0.94616    
    4472.0      0.94619    
    4473.0      0.94623    
    4474.0      0.94626    
    4475.0      0.94629    
    4476.0      0.94633    
    4477.0      0.94636    
    4478.0      0.94639    
    4479.0      0.94643    
    4480.0      0.94646    
    4481.0      0.94649    
    4482.0      0.94652    
    4483.0      0.94656    
    4484.0      0.94659    
    4485.0      0.94662    
    4486.0      0.94666    
    4487.0      0.94669    
    4488.0      0.94672    
    4489.0      0.94675    
    4490.0      0.94679    
    4491.0      0.94682    
    4492.0      0.94685    
    4493.0      0.94689    
    4494.0      0.94692    
    4495.0      0.94695    
    4496.0      0.94698    
    4497.0      0.94702    
    4498.0      0.94705    
    4499.0      0.94708    
    4500.0      0.94711    
    4501.0      0.94715    
    4502.0      0.94718    
    4503.0      0.94721    
    4504.0      0.94724    
    4505.0      0.94728    
    4506.0      0.94731    
    4507.0      0.94734    
    4508.0      0.94737    
    4509.0      0.94741    
    4510.0      0.94744    
    4511.0      0.94747    
    4512.0      0.94750    
    4513.0      0.94753    
    4514.0      0.94757    
    4515.0      0.94760    
    4516.0      0.94763    
    4517.0      0.94766    
    4518.0      0.94769    
    4519.0      0.94773    
    4520.0      0.94776    
    4521.0      0.94779    
    4522.0      0.94782    
    4523.0      0.94785    
    4524.0      0.94789    
    4525.0      0.94792    
    4526.0      0.94795    
    4527.0      0.94798    
    4528.0      0.94801    
    4529.0      0.94805    
    4530.0      0.94808    
    4531.0      0.94811    
    4532.0      0.94814    
    4533.0      0.94817    
    4534.0      0.94820    
    4535.0      0.94824    
    4536.0      0.94827    
    4537.0      0.94830    
    4538.0      0.94833    
    4539.0      0.94836    
    4540.0      0.94839    
    4541.0      0.94842    
    4542.0      0.94846    
    4543.0      0.94849    
    4544.0      0.94852    
    4545.0      0.94855    
    4546.0      0.94858    
    4547.0      0.94861    
    4548.0      0.94864    
    4549.0      0.94868    
    4550.0      0.94871    
    4551.0      0.94874    
    4552.0      0.94877    
    4553.0      0.94880    
    4554.0      0.94883    
    4555.0      0.94886    
    4556.0      0.94889    
    4557.0      0.94892    
    4558.0      0.94896    
    4559.0      0.94899    
    4560.0      0.94902    
    4561.0      0.94905    
    4562.0      0.94908    
    4563.0      0.94911    
    4564.0      0.94914    
    4565.0      0.94917    
    4566.0      0.94920    
    4567.0      0.94923    
    4568.0      0.94927    
    4569.0      0.94930    
    4570.0      0.94933    
    4571.0      0.94936    
    4572.0      0.94939    
    4573.0      0.94942    
    4574.0      0.94945    
    4575.0      0.94948    
    4576.0      0.94951    
    4577.0      0.94954    
    4578.0      0.94957    
    4579.0      0.94960    
    4580.0      0.94963    
    4581.0      0.94966    
    4582.0      0.94969    
    4583.0      0.94972    
    4584.0      0.94975    
    4585.0      0.94978    
    4586.0      0.94982    
    4587.0      0.94985    
    4588.0      0.94988    
    4589.0      0.94991    
    4590.0      0.94994    
    4591.0      0.94997    
    4592.0      0.95000    
    4593.0      0.95003    
    4594.0      0.95006    
    4595.0      0.95009    
    4596.0      0.95012    
    4597.0      0.95015    
    4598.0      0.95018    
    4599.0      0.95021    
    4600.0      0.95024    
    4601.0      0.95027    
    4602.0      0.95030    
    4603.0      0.95033    
    4604.0      0.95036    
    4605.0      0.95039    
    4606.0      0.95042    
    4607.0      0.95045    
    4608.0      0.95048    
    4609.0      0.95051    
    4610.0      0.95054    
    4611.0      0.95057    
    4612.0      0.95060    
    4613.0      0.95063    
    4614.0      0.95066    
    4615.0      0.95069    
    4616.0      0.95071    
    4617.0      0.95074    
    4618.0      0.95077    
    4619.0      0.95080    
    4620.0      0.95083    
    4621.0      0.95086    
    4622.0      0.95089    
    4623.0      0.95092    
    4624.0      0.95095    
    4625.0      0.95098    
    4626.0      0.95101    
    4627.0      0.95104    
    4628.0      0.95107    
    4629.0      0.95110    
    4630.0      0.95113    
    4631.0      0.95116    
    4632.0      0.95119    
    4633.0      0.95122    
    4634.0      0.95124    
    4635.0      0.95127    
    4636.0      0.95130    
    4637.0      0.95133    
    4638.0      0.95136    
    4639.0      0.95139    
    4640.0      0.95142    
    4641.0      0.95145    
    4642.0      0.95148    
    4643.0      0.95151    
    4644.0      0.95154    
    4645.0      0.95156    
    4646.0      0.95159    
    4647.0      0.95162    
    4648.0      0.95165    
    4649.0      0.95168    
    4650.0      0.95171    
    4651.0      0.95174    
    4652.0      0.95177    
    4653.0      0.95180    
    4654.0      0.95182    
    4655.0      0.95185    
    4656.0      0.95188    
    4657.0      0.95191    
    4658.0      0.95194    
    4659.0      0.95197    
    4660.0      0.95200    
    4661.0      0.95202    
    4662.0      0.95205    
    4663.0      0.95208    
    4664.0      0.95211    
    4665.0      0.95214    
    4666.0      0.95217    
    4667.0      0.95220    
    4668.0      0.95222    
    4669.0      0.95225    
    4670.0      0.95228    
    4671.0      0.95231    
    4672.0      0.95234    
    4673.0      0.95237    
    4674.0      0.95239    
    4675.0      0.95242    
    4676.0      0.95245    
    4677.0      0.95248    
    4678.0      0.95251    
    4679.0      0.95254    
    4680.0      0.95256    
    4681.0      0.95259    
    4682.0      0.95262    
    4683.0      0.95265    
    4684.0      0.95268    
    4685.0      0.95270    
    4686.0      0.95273    
    4687.0      0.95276    
    4688.0      0.95279    
    4689.0      0.95282    
    4690.0      0.95284    
    4691.0      0.95287    
    4692.0      0.95290    
    4693.0      0.95293    
    4694.0      0.95296    
    4695.0      0.95298    
    4696.0      0.95301    
    4697.0      0.95304    
    4698.0      0.95307    
    4699.0      0.95310    
    4700.0      0.95312    
    4701.0      0.95315    
    4702.0      0.95318    
    4703.0      0.95321    
    4704.0      0.95323    
    4705.0      0.95326    
    4706.0      0.95329    
    4707.0      0.95332    
    4708.0      0.95334    
    4709.0      0.95337    
    4710.0      0.95340    
    4711.0      0.95343    
    4712.0      0.95345    
    4713.0      0.95348    
    4714.0      0.95351    
    4715.0      0.95354    
    4716.0      0.95356    
    4717.0      0.95359    
    4718.0      0.95362    
    4719.0      0.95365    
    4720.0      0.95367    
    4721.0      0.95370    
    4722.0      0.95373    
    4723.0      0.95376    
    4724.0      0.95378    
    4725.0      0.95381    
    4726.0      0.95384    
    4727.0      0.95386    
    4728.0      0.95389    
    4729.0      0.95392    
    4730.0      0.95395    
    4731.0      0.95397    
    4732.0      0.95400    
    4733.0      0.95403    
    4734.0      0.95405    
    4735.0      0.95408    
    4736.0      0.95411    
    4737.0      0.95414    
    4738.0      0.95416    
    4739.0      0.95419    
    4740.0      0.95422    
    4741.0      0.95424    
    4742.0      0.95427    
    4743.0      0.95430    
    4744.0      0.95432    
    4745.0      0.95435    
    4746.0      0.95438    
    4747.0      0.95440    
    4748.0      0.95443    
    4749.0      0.95446    
    4750.0      0.95448    
    4751.0      0.95451    
    4752.0      0.95454    
    4753.0      0.95456    
    4754.0      0.95459    
    4755.0      0.95462    
    4756.0      0.95464    
    4757.0      0.95467    
    4758.0      0.95470    
    4759.0      0.95472    
    4760.0      0.95475    
    4761.0      0.95478    
    4762.0      0.95480    
    4763.0      0.95483    
    4764.0      0.95486    
    4765.0      0.95488    
    4766.0      0.95491    
    4767.0      0.95494    
    4768.0      0.95496    
    4769.0      0.95499    
    4770.0      0.95501    
    4771.0      0.95504    
    4772.0      0.95507    
    4773.0      0.95509    
    4774.0      0.95512    
    4775.0      0.95515    
    4776.0      0.95517    
    4777.0      0.95520    
    4778.0      0.95522    
    4779.0      0.95525    
    4780.0      0.95528    
    4781.0      0.95530    
    4782.0      0.95533    
    4783.0      0.95535    
    4784.0      0.95538    
    4785.0      0.95541    
    4786.0      0.95543    
    4787.0      0.95546    
    4788.0      0.95548    
    4789.0      0.95551    
    4790.0      0.95554    
    4791.0      0.95556    
    4792.0      0.95559    
    4793.0      0.95561    
    4794.0      0.95564    
    4795.0      0.95567    
    4796.0      0.95569    
    4797.0      0.95572    
    4798.0      0.95574    
    4799.0      0.95577    
    4800.0      0.95579    
    4801.0      0.95582    
    4802.0      0.95585    
    4803.0      0.95587    
    4804.0      0.95590    
    4805.0      0.95592    
    4806.0      0.95595    
    4807.0      0.95597    
    4808.0      0.95600    
    4809.0      0.95602    
    4810.0      0.95605    
    4811.0      0.95608    
    4812.0      0.95610    
    4813.0      0.95613    
    4814.0      0.95615    
    4815.0      0.95618    
    4816.0      0.95620    
    4817.0      0.95623    
    4818.0      0.95625    
    4819.0      0.95628    
    4820.0      0.95630    
    4821.0      0.95633    
    4822.0      0.95635    
    4823.0      0.95638    
    4824.0      0.95641    
    4825.0      0.95643    
    4826.0      0.95646    
    4827.0      0.95648    
    4828.0      0.95651    
    4829.0      0.95653    
    4830.0      0.95656    
    4831.0      0.95658    
    4832.0      0.95661    
    4833.0      0.95663    
    4834.0      0.95666    
    4835.0      0.95668    
    4836.0      0.95671    
    4837.0      0.95673    
    4838.0      0.95676    
    4839.0      0.95678    
    4840.0      0.95681    
    4841.0      0.95683    
    4842.0      0.95686    
    4843.0      0.95688    
    4844.0      0.95691    
    4845.0      0.95693    
    4846.0      0.95696    
    4847.0      0.95698    
    4848.0      0.95701    
    4849.0      0.95703    
    4850.0      0.95705    
    4851.0      0.95708    
    4852.0      0.95710    
    4853.0      0.95713    
    4854.0      0.95715    
    4855.0      0.95718    
    4856.0      0.95720    
    4857.0      0.95723    
    4858.0      0.95725    
    4859.0      0.95728    
    4860.0      0.95730    
    4861.0      0.95733    
    4862.0      0.95735    
    4863.0      0.95737    
    4864.0      0.95740    
    4865.0      0.95742    
    4866.0      0.95745    
    4867.0      0.95747    
    4868.0      0.95750    
    4869.0      0.95752    
    4870.0      0.95755    
    4871.0      0.95757    
    4872.0      0.95759    
    4873.0      0.95762    
    4874.0      0.95764    
    4875.0      0.95767    
    4876.0      0.95769    
    4877.0      0.95772    
    4878.0      0.95774    
    4879.0      0.95776    
    4880.0      0.95779    
    4881.0      0.95781    
    4882.0      0.95784    
    4883.0      0.95786    
    4884.0      0.95788    
    4885.0      0.95791    
    4886.0      0.95793    
    4887.0      0.95796    
    4888.0      0.95798    
    4889.0      0.95801    
    4890.0      0.95803    
    4891.0      0.95805    
    4892.0      0.95808    
    4893.0      0.95810    
    4894.0      0.95812    
    4895.0      0.95815    
    4896.0      0.95817    
    4897.0      0.95820    
    4898.0      0.95822    
    4899.0      0.95824    
    4900.0      0.95827    
    4901.0      0.95829    
    4902.0      0.95832    
    4903.0      0.95834    
    4904.0      0.95836    
    4905.0      0.95839    
    4906.0      0.95841    
    4907.0      0.95843    
    4908.0      0.95846    
    4909.0      0.95848    
    4910.0      0.95851    
    4911.0      0.95853    
    4912.0      0.95855    
    4913.0      0.95858    
    4914.0      0.95860    
    4915.0      0.95862    
    4916.0      0.95865    
    4917.0      0.95867    
    4918.0      0.95869    
    4919.0      0.95872    
    4920.0      0.95874    
    4921.0      0.95876    
    4922.0      0.95879    
    4923.0      0.95881    
    4924.0      0.95884    
    4925.0      0.95886    
    4926.0      0.95888    
    4927.0      0.95891    
    4928.0      0.95893    
    4929.0      0.95895    
    4930.0      0.95898    
    4931.0      0.95900    
    4932.0      0.95902    
    4933.0      0.95905    
    4934.0      0.95907    
    4935.0      0.95909    
    4936.0      0.95911    
    4937.0      0.95914    
    4938.0      0.95916    
    4939.0      0.95918    
    4940.0      0.95921    
    4941.0      0.95923    
    4942.0      0.95925    
    4943.0      0.95928    
    4944.0      0.95930    
    4945.0      0.95932    
    4946.0      0.95935    
    4947.0      0.95937    
    4948.0      0.95939    
    4949.0      0.95941    
    4950.0      0.95944    
    4951.0      0.95946    
    4952.0      0.95948    
    4953.0      0.95951    
    4954.0      0.95953    
    4955.0      0.95955    
    4956.0      0.95958    
    4957.0      0.95960    
    4958.0      0.95962    
    4959.0      0.95964    
    4960.0      0.95967    
    4961.0      0.95969    
    4962.0      0.95971    
    4963.0      0.95973    
    4964.0      0.95976    
    4965.0      0.95978    
    4966.0      0.95980    
    4967.0      0.95983    
    4968.0      0.95985    
    4969.0      0.95987    
    4970.0      0.95989    
    4971.0      0.95992    
    4972.0      0.95994    
    4973.0      0.95996    
    4974.0      0.95998    
    4975.0      0.96001    
    4976.0      0.96003    
    4977.0      0.96005    
    4978.0      0.96007    
    4979.0      0.96010    
    4980.0      0.96012    
    4981.0      0.96014    
    4982.0      0.96016    
    4983.0      0.96019    
    4984.0      0.96021    
    4985.0      0.96023    
    4986.0      0.96025    
    4987.0      0.96028    
    4988.0      0.96030    
    4989.0      0.96032    
    4990.0      0.96034    
    4991.0      0.96036    
    4992.0      0.96039    
    4993.0      0.96041    
    4994.0      0.96043    
    4995.0      0.96045    
    4996.0      0.96048    
    4997.0      0.96050    
    4998.0      0.96052    
    4999.0      0.96054    
    5000.0      0.96056    
    5005.0      0.96068    
    5010.0      0.96079    
    5015.0      0.96089    
    5020.0      0.96100    
    5025.0      0.96111    
    5030.0      0.96122    
    5035.0      0.96133    
    5040.0      0.96144    
    5045.0      0.96154    
    5050.0      0.96165    
    5055.0      0.96176    
    5060.0      0.96186    
    5065.0      0.96197    
    5070.0      0.96207    
    5075.0      0.96218    
    5080.0      0.96228    
    5085.0      0.96239    
    5090.0      0.96249    
    5095.0      0.96259    
    5100.0      0.96270    
    5105.0      0.96280    
    5110.0      0.96290    
    5115.0      0.96300    
    5120.0      0.96311    
    5125.0      0.96321    
    5130.0      0.96331    
    5135.0      0.96341    
    5140.0      0.96351    
    5145.0      0.96361    
    5150.0      0.96371    
    5155.0      0.96381    
    5160.0      0.96390    
    5165.0      0.96400    
    5170.0      0.96410    
    5175.0      0.96420    
    5180.0      0.96430    
    5185.0      0.96439    
    5190.0      0.96449    
    5195.0      0.96459    
    5200.0      0.96468    
    5205.0      0.96478    
    5210.0      0.96487    
    5215.0      0.96497    
    5220.0      0.96506    
    5225.0      0.96516    
    5230.0      0.96525    
    5235.0      0.96534    
    5240.0      0.96544    
    5245.0      0.96553    
    5250.0      0.96562    
    5255.0      0.96571    
    5260.0      0.96581    
    5265.0      0.96590    
    5270.0      0.96599    
    5275.0      0.96608    
    5280.0      0.96617    
    5285.0      0.96626    
    5290.0      0.96635    
    5295.0      0.96644    
    5300.0      0.96653    
    5305.0      0.96662    
    5310.0      0.96671    
    5315.0      0.96679    
    5320.0      0.96688    
    5325.0      0.96697    
    5330.0      0.96706    
    5335.0      0.96715    
    5340.0      0.96723    
    5345.0      0.96732    
    5350.0      0.96741    
    5355.0      0.96749    
    5360.0      0.96758    
    5365.0      0.96766    
    5370.0      0.96775    
    5375.0      0.96783    
    5380.0      0.96792    
    5385.0      0.96800    
    5390.0      0.96808    
    5395.0      0.96817    
    5400.0      0.96825    
    5405.0      0.96833    
    5410.0      0.96842    
    5415.0      0.96850    
    5420.0      0.96858    
    5425.0      0.96866    
    5430.0      0.96874    
    5435.0      0.96883    
    5440.0      0.96891    
    5445.0      0.96899    
    5450.0      0.96907    
    5455.0      0.96915    
    5460.0      0.96923    
    5465.0      0.96931    
    5470.0      0.96939    
    5475.0      0.96947    
    5480.0      0.96955    
    5485.0      0.96962    
    5490.0      0.96970    
    5495.0      0.96978    
    5500.0      0.96986    
    5505.0      0.96994    
    5510.0      0.97001    
    5515.0      0.97009    
    5520.0      0.97017    
    5525.0      0.97024    
    5530.0      0.97032    
    5535.0      0.97040    
    5540.0      0.97047    
    5545.0      0.97055    
    5550.0      0.97062    
    5555.0      0.97070    
    5560.0      0.97077    
    5565.0      0.97085    
    5570.0      0.97092    
    5575.0      0.97099    
    5580.0      0.97107    
    5585.0      0.97114    
    5590.0      0.97122    
    5595.0      0.97129    
    5600.0      0.97136    
    5605.0      0.97143    
    5610.0      0.97151    
    5615.0      0.97158    
    5620.0      0.97165    
    5625.0      0.97172    
    5630.0      0.97179    
    5635.0      0.97186    
    5640.0      0.97193    
    5645.0      0.97200    
    5650.0      0.97207    
    5655.0      0.97214    
    5660.0      0.97221    
    5665.0      0.97228    
    5670.0      0.97235    
    5675.0      0.97242    
    5680.0      0.97249    
    5685.0      0.97256    
    5690.0      0.97263    
    5695.0      0.97270    
    5700.0      0.97277    
    5705.0      0.97283    
    5710.0      0.97290    
    5715.0      0.97297    
    5720.0      0.97304    
    5725.0      0.97310    
    5730.0      0.97317    
    5735.0      0.97324    
    5740.0      0.97330    
    5745.0      0.97337    
    5750.0      0.97343    
    5755.0      0.97350    
    5760.0      0.97356    
    5765.0      0.97363    
    5770.0      0.97369    
    5775.0      0.97376    
    5780.0      0.97382    
    5785.0      0.97389    
    5790.0      0.97395    
    5795.0      0.97402    
    5800.0      0.97408    
    5805.0      0.97414    
    5810.0      0.97421    
    5815.0      0.97427    
    5820.0      0.97433    
    5825.0      0.97440    
    5830.0      0.97446    
    5835.0      0.97452    
    5840.0      0.97458    
    5845.0      0.97464    
    5850.0      0.97471    
    5855.0      0.97477    
    5860.0      0.97483    
    5865.0      0.97489    
    5870.0      0.97495    
    5875.0      0.97501    
    5880.0      0.97507    
    5885.0      0.97513    
    5890.0      0.97519    
    5895.0      0.97525    
    5900.0      0.97531    
    5905.0      0.97537    
    5910.0      0.97543    
    5915.0      0.97549    
    5920.0      0.97555    
    5925.0      0.97561    
    5930.0      0.97567    
    5935.0      0.97573    
    5940.0      0.97578    
    5945.0      0.97584    
    5950.0      0.97590    
    5955.0      0.97596    
    5960.0      0.97602    
    5965.0      0.97607    
    5970.0      0.97613    
    5975.0      0.97619    
    5980.0      0.97624    
    5985.0      0.97630    
    5990.0      0.97636    
    5995.0      0.97641    
    6000.0      0.97647    
    6005.0      0.97653    
    6010.0      0.97658    
    6015.0      0.97664    
    6020.0      0.97669    
    6025.0      0.97675    
    6030.0      0.97680    
    6035.0      0.97686    
    6040.0      0.97691    
    6045.0      0.97697    
    6050.0      0.97702    
    6055.0      0.97708    
    6060.0      0.97713    
    6065.0      0.97718    
    6070.0      0.97724    
    6075.0      0.97729    
    6080.0      0.97734    
    6085.0      0.97740    
    6090.0      0.97745    
    6095.0      0.97750    
    6100.0      0.97756    
    6105.0      0.97761    
    6110.0      0.97766    
    6115.0      0.97771    
    6120.0      0.97777    
    6125.0      0.97782    
    6130.0      0.97787    
    6135.0      0.97792    
    6140.0      0.97797    
    6145.0      0.97802    
    6150.0      0.97807    
    6155.0      0.97813    
    6160.0      0.97818    
    6165.0      0.97823    
    6170.0      0.97828    
    6175.0      0.97833    
    6180.0      0.97838    
    6185.0      0.97843    
    6190.0      0.97848    
    6195.0      0.97853    
    6200.0      0.97858    
    6205.0      0.97863    
    6210.0      0.97868    
    6215.0      0.97873    
    6220.0      0.97877    
    6225.0      0.97882    
    6230.0      0.97887    
    6235.0      0.97892    
    6240.0      0.97897    
    6245.0      0.97902    
    6250.0      0.97906    
    6255.0      0.97911    
    6260.0      0.97916    
    6265.0      0.97921    
    6270.0      0.97926    
    6275.0      0.97930    
    6280.0      0.97935    
    6285.0      0.97940    
    6290.0      0.97944    
    6295.0      0.97949    
    6300.0      0.97954    
    6305.0      0.97958    
    6310.0      0.97963    
    6315.0      0.97968    
    6320.0      0.97972    
    6325.0      0.97977    
    6330.0      0.97981    
    6335.0      0.97986    
    6340.0      0.97991    
    6345.0      0.97995    
    6350.0      0.98000    
    6355.0      0.98004    
    6360.0      0.98009    
    6365.0      0.98013    
    6370.0      0.98018    
    6375.0      0.98022    
    6380.0      0.98027    
    6385.0      0.98031    
    6390.0      0.98035    
    6395.0      0.98040    
    6400.0      0.98044    
    6405.0      0.98049    
    6410.0      0.98053    
    6415.0      0.98057    
    6420.0      0.98062    
    6425.0      0.98066    
    6430.0      0.98070    
    6435.0      0.98075    
    6440.0      0.98079    
    6445.0      0.98083    
    6450.0      0.98087    
    6455.0      0.98092    
    6460.0      0.98096    
    6465.0      0.98100    
    6470.0      0.98104    
    6475.0      0.98109    
    6480.0      0.98113    
    6485.0      0.98117    
    6490.0      0.98121    
    6495.0      0.98125    
    6500.0      0.98129    
    6505.0      0.98134    
    6510.0      0.98138    
    6515.0      0.98142    
    6520.0      0.98146    
    6525.0      0.98150    
    6530.0      0.98154    
    6535.0      0.98158    
    6540.0      0.98162    
    6545.0      0.98166    
    6550.0      0.98170    
    6555.0      0.98174    
    6560.0      0.98178    
    6565.0      0.98182    
    6570.0      0.98186    
    6575.0      0.98190    
    6580.0      0.98194    
    6585.0      0.98198    
    6590.0      0.98202    
    6595.0      0.98206    
    6600.0      0.98210    
    6605.0      0.98214    
    6610.0      0.98218    
    6615.0      0.98222    
    6620.0      0.98225    
    6625.0      0.98229    
    6630.0      0.98233    
    6635.0      0.98237    
    6640.0      0.98241    
    6645.0      0.98245    
    6650.0      0.98248    
    6655.0      0.98252    
    6660.0      0.98256    
    6665.0      0.98260    
    6670.0      0.98263    
    6675.0      0.98267    
    6680.0      0.98271    
    6685.0      0.98275    
    6690.0      0.98278    
    6695.0      0.98282    
    6700.0      0.98286    
    6705.0      0.98289    
    6710.0      0.98293    
    6715.0      0.98297    
    6720.0      0.98300    
    6725.0      0.98304    
    6730.0      0.98308    
    6735.0      0.98311    
    6740.0      0.98315    
    6745.0      0.98319    
    6750.0      0.98322    
    6755.0      0.98326    
    6760.0      0.98329    
    6765.0      0.98333    
    6770.0      0.98336    
    6775.0      0.98340    
    6780.0      0.98343    
    6785.0      0.98347    
    6790.0      0.98350    
    6795.0      0.98354    
    6800.0      0.98357    
    6805.0      0.98361    
    6810.0      0.98364    
    6815.0      0.98368    
    6820.0      0.98371    
    6825.0      0.98375    
    6830.0      0.98378    
    6835.0      0.98382    
    6840.0      0.98385    
    6845.0      0.98388    
    6850.0      0.98392    
    6855.0      0.98395    
    6860.0      0.98399    
    6865.0      0.98402    
    6870.0      0.98405    
    6875.0      0.98409    
    6880.0      0.98412    
    6885.0      0.98415    
    6890.0      0.98419    
    6895.0      0.98422    
    6900.0      0.98425    
    6905.0      0.98429    
    6910.0      0.98432    
    6915.0      0.98435    
    6920.0      0.98438    
    6925.0      0.98442    
    6930.0      0.98445    
    6935.0      0.98448    
    6940.0      0.98451    
    6945.0      0.98455    
    6950.0      0.98458    
    6955.0      0.98461    
    6960.0      0.98464    
    6965.0      0.98467    
    6970.0      0.98471    
    6975.0      0.98474    
    6980.0      0.98477    
    6985.0      0.98480    
    6990.0      0.98483    
    6995.0      0.98486    
    7000.0      0.98489    
    7005.0      0.98492    
    7010.0      0.98496    
    7015.0      0.98499    
    7020.0      0.98502    
    7025.0      0.98505    
    7030.0      0.98508    
    7035.0      0.98511    
    7040.0      0.98514    
    7045.0      0.98517    
    7050.0      0.98520    
    7055.0      0.98523    
    7060.0      0.98526    
    7065.0      0.98529    
    7070.0      0.98532    
    7075.0      0.98535    
    7080.0      0.98538    
    7085.0      0.98541    
    7090.0      0.98544    
    7095.0      0.98547    
    7100.0      0.98550    
    7105.0      0.98553    
    7110.0      0.98556    
    7115.0      0.98559    
    7120.0      0.98562    
    7125.0      0.98565    
    7130.0      0.98568    
    7135.0      0.98571    
    7140.0      0.98573    
    7145.0      0.98576    
    7150.0      0.98579    
    7155.0      0.98582    
    7160.0      0.98585    
    7165.0      0.98588    
    7170.0      0.98591    
    7175.0      0.98594    
    7180.0      0.98596    
    7185.0      0.98599    
    7190.0      0.98602    
    7195.0      0.98605    
    7200.0      0.98608    
    7205.0      0.98610    
    7210.0      0.98613    
    7215.0      0.98616    
    7220.0      0.98619    
    7225.0      0.98622    
    7230.0      0.98624    
    7235.0      0.98627    
    7240.0      0.98630    
    7245.0      0.98633    
    7250.0      0.98635    
    7255.0      0.98638    
    7260.0      0.98641    
    7265.0      0.98643    
    7270.0      0.98646    
    7275.0      0.98649    
    7280.0      0.98651    
    7285.0      0.98654    
    7290.0      0.98657    
    7295.0      0.98660    
    7300.0      0.98662    
    7305.0      0.98665    
    7310.0      0.98667    
    7315.0      0.98670    
    7320.0      0.98673    
    7325.0      0.98675    
    7330.0      0.98678    
    7335.0      0.98681    
    7340.0      0.98683    
    7345.0      0.98686    
    7350.0      0.98688    
    7355.0      0.98691    
    7360.0      0.98694    
    7365.0      0.98696    
    7370.0      0.98699    
    7375.0      0.98701    
    7380.0      0.98704    
    7385.0      0.98706    
    7390.0      0.98709    
    7395.0      0.98711    
    7400.0      0.98714    
    7405.0      0.98716    
    7410.0      0.98719    
    7415.0      0.98721    
    7420.0      0.98724    
    7425.0      0.98726    
    7430.0      0.98729    
    7435.0      0.98731    
    7440.0      0.98734    
    7445.0      0.98736    
    7450.0      0.98739    
    7455.0      0.98741    
    7460.0      0.98744    
    7465.0      0.98746    
    7470.0      0.98749    
    7475.0      0.98751    
    7480.0      0.98753    
    7485.0      0.98756    
    7490.0      0.98758    
    7495.0      0.98761    
    7500.0      0.98763    
    7505.0      0.98765    
    7510.0      0.98768    
    7515.0      0.98770    
    7520.0      0.98773    
    7525.0      0.98775    
    7530.0      0.98777    
    7535.0      0.98780    
    7540.0      0.98782    
    7545.0      0.98784    
    7550.0      0.98787    
    7555.0      0.98789    
    7560.0      0.98791    
    7565.0      0.98794    
    7570.0      0.98796    
    7575.0      0.98798    
    7580.0      0.98801    
    7585.0      0.98803    
    7590.0      0.98805    
    7595.0      0.98807    
    7600.0      0.98810    
    7605.0      0.98812    
    7610.0      0.98814    
    7615.0      0.98817    
    7620.0      0.98819    
    7625.0      0.98821    
    7630.0      0.98823    
    7635.0      0.98826    
    7640.0      0.98828    
    7645.0      0.98830    
    7650.0      0.98832    
    7655.0      0.98834    
    7660.0      0.98837    
    7665.0      0.98839    
    7670.0      0.98841    
    7675.0      0.98843    
    7680.0      0.98845    
    7685.0      0.98848    
    7690.0      0.98850    
    7695.0      0.98852    
    7700.0      0.98854    
    7705.0      0.98856    
    7710.0      0.98858    
    7715.0      0.98861    
    7720.0      0.98863    
    7725.0      0.98865    
    7730.0      0.98867    
    7735.0      0.98869    
    7740.0      0.98871    
    7745.0      0.98873    
    7750.0      0.98875    
    7755.0      0.98878    
    7760.0      0.98880    
    7765.0      0.98882    
    7770.0      0.98884    
    7775.0      0.98886    
    7780.0      0.98888    
    7785.0      0.98890    
    7790.0      0.98892    
    7795.0      0.98894    
    7800.0      0.98896    
    7805.0      0.98898    
    7810.0      0.98900    
    7815.0      0.98902    
    7820.0      0.98905    
    7825.0      0.98907    
    7830.0      0.98909    
    7835.0      0.98911    
    7840.0      0.98913    
    7845.0      0.98915    
    7850.0      0.98917    
    7855.0      0.98919    
    7860.0      0.98921    
    7865.0      0.98923    
    7870.0      0.98925    
    7875.0      0.98927    
    7880.0      0.98929    
    7885.0      0.98931    
    7890.0      0.98933    
    7895.0      0.98935    
    7900.0      0.98937    
    7905.0      0.98938    
    7910.0      0.98940    
    7915.0      0.98942    
    7920.0      0.98944    
    7925.0      0.98946    
    7930.0      0.98948    
    7935.0      0.98950    
    7940.0      0.98952    
    7945.0      0.98954    
    7950.0      0.98956    
    7955.0      0.98958    
    7960.0      0.98960    
    7965.0      0.98962    
    7970.0      0.98963    
    7975.0      0.98965    
    7980.0      0.98967    
    7985.0      0.98969    
    7990.0      0.98971    
    7995.0      0.98973    
    8000.0      0.98975    
    8005.0      0.98977    
    8010.0      0.98978    
    8015.0      0.98980    
    8020.0      0.98982    
    8025.0      0.98984    
    8030.0      0.98986    
    8035.0      0.98988    
    8040.0      0.98990    
    8045.0      0.98991    
    8050.0      0.98993    
    8055.0      0.98995    
    8060.0      0.98997    
    8065.0      0.98999    
    8070.0      0.99000    
    8075.0      0.99002    
    8080.0      0.99004    
    8085.0      0.99006    
    8090.0      0.99008    
    8095.0      0.99009    
    8100.0      0.99011    
    8105.0      0.99013    
    8110.0      0.99015    
    8115.0      0.99017    
    8120.0      0.99018    
    8125.0      0.99020    
    8130.0      0.99022    
    8135.0      0.99024    
    8140.0      0.99025    
    8145.0      0.99027    
    8150.0      0.99029    
    8155.0      0.99031    
    8160.0      0.99032    
    8165.0      0.99034    
    8170.0      0.99036    
    8175.0      0.99037    
    8180.0      0.99039    
    8185.0      0.99041    
    8190.0      0.99043    
    8195.0      0.99044    
    8200.0      0.99046    
    8205.0      0.99048    
    8210.0      0.99049    
    8215.0      0.99051    
    8220.0      0.99053    
    8225.0      0.99054    
    8230.0      0.99056    
    8235.0      0.99058    
    8240.0      0.99059    
    8245.0      0.99061    
    8250.0      0.99063    
    8255.0      0.99064    
    8260.0      0.99066    
    8265.0      0.99068    
    8270.0      0.99069    
    8275.0      0.99071    
    8280.0      0.99073    
    8285.0      0.99074    
    8290.0      0.99076    
    8295.0      0.99078    
    8300.0      0.99079    
    8305.0      0.99081    
    8310.0      0.99082    
    8315.0      0.99084    
    8320.0      0.99086    
    8325.0      0.99087    
    8330.0      0.99089    
    8335.0      0.99090    
    8340.0      0.99092    
    8345.0      0.99094    
    8350.0      0.99095    
    8355.0      0.99097    
    8360.0      0.99098    
    8365.0      0.99100    
    8370.0      0.99101    
    8375.0      0.99103    
    8380.0      0.99105    
    8385.0      0.99106    
    8390.0      0.99108    
    8395.0      0.99109    
    8400.0      0.99111    
    8405.0      0.99112    
    8410.0      0.99114    
    8415.0      0.99115    
    8420.0      0.99117    
    8425.0      0.99118    
    8430.0      0.99120    
    8435.0      0.99122    
    8440.0      0.99123    
    8445.0      0.99125    
    8450.0      0.99126    
    8455.0      0.99128    
    8460.0      0.99129    
    8465.0      0.99131    
    8470.0      0.99132    
    8475.0      0.99134    
    8480.0      0.99135    
    8485.0      0.99137    
    8490.0      0.99138    
    8495.0      0.99140    
    8500.0      0.99141    
    8505.0      0.99142    
    8510.0      0.99144    
    8515.0      0.99145    
    8520.0      0.99147    
    8525.0      0.99148    
    8530.0      0.99150    
    8535.0      0.99151    
    8540.0      0.99153    
    8545.0      0.99154    
    8550.0      0.99156    
    8555.0      0.99157    
    8560.0      0.99159    
    8565.0      0.99160    
    8570.0      0.99161    
    8575.0      0.99163    
    8580.0      0.99164    
    8585.0      0.99166    
    8590.0      0.99167    
    8595.0      0.99168    
    8600.0      0.99170    
    8605.0      0.99171    
    8610.0      0.99173    
    8615.0      0.99174    
    8620.0      0.99176    
    8625.0      0.99177    
    8630.0      0.99178    
    8635.0      0.99180    
    8640.0      0.99181    
    8645.0      0.99182    
    8650.0      0.99184    
    8655.0      0.99185    
    8660.0      0.99187    
    8665.0      0.99188    
    8670.0      0.99189    
    8675.0      0.99191    
    8680.0      0.99192    
    8685.0      0.99193    
    8690.0      0.99195    
    8695.0      0.99196    
    8700.0      0.99197    
    8705.0      0.99199    
    8710.0      0.99200    
    8715.0      0.99202    
    8720.0      0.99203    
    8725.0      0.99204    
    8730.0      0.99206    
    8735.0      0.99207    
    8740.0      0.99208    
    8745.0      0.99210    
    8750.0      0.99211    
    8755.0      0.99212    
    8760.0      0.99213    
    8765.0      0.99215    
    8770.0      0.99216    
    8775.0      0.99217    
    8780.0      0.99219    
    8785.0      0.99220    
    8790.0      0.99221    
    8795.0      0.99223    
    8800.0      0.99224    
    8805.0      0.99225    
    8810.0      0.99226    
    8815.0      0.99228    
    8820.0      0.99229    
    8825.0      0.99230    
    8830.0      0.99232    
    8835.0      0.99233    
    8840.0      0.99234    
    8845.0      0.99235    
    8850.0      0.99237    
    8855.0      0.99238    
    8860.0      0.99239    
    8865.0      0.99240    
    8870.0      0.99242    
    8875.0      0.99243    
    8880.0      0.99244    
    8885.0      0.99245    
    8890.0      0.99247    
    8895.0      0.99248    
    8900.0      0.99249    
    8905.0      0.99250    
    8910.0      0.99252    
    8915.0      0.99253    
    8920.0      0.99254    
    8925.0      0.99255    
    8930.0      0.99257    
    8935.0      0.99258    
    8940.0      0.99259    
    8945.0      0.99260    
    8950.0      0.99261    
    8955.0      0.99263    
    8960.0      0.99264    
    8965.0      0.99265    
    8970.0      0.99266    
    8975.0      0.99267    
    8980.0      0.99269    
    8985.0      0.99270    
    8990.0      0.99271    
    8995.0      0.99272    
    9000.0      0.99273    
    9005.0      0.99275    
    9010.0      0.99276    
    9015.0      0.99277    
    9020.0      0.99278    
    9025.0      0.99279    
    9030.0      0.99280    
    9035.0      0.99282    
    9040.0      0.99283    
    9045.0      0.99284    
    9050.0      0.99285    
    9055.0      0.99286    
    9060.0      0.99287    
    9065.0      0.99289    
    9070.0      0.99290    
    9075.0      0.99291    
    9080.0      0.99292    
    9085.0      0.99293    
    9090.0      0.99294    
    9095.0      0.99295    
    9100.0      0.99296    
    9105.0      0.99298    
    9110.0      0.99299    
    9115.0      0.99300    
    9120.0      0.99301    
    9125.0      0.99302    
    9130.0      0.99303    
    9135.0      0.99304    
    9140.0      0.99305    
    9145.0      0.99307    
    9150.0      0.99308    
    9155.0      0.99309    
    9160.0      0.99310    
    9165.0      0.99311    
    9170.0      0.99312    
    9175.0      0.99313    
    9180.0      0.99314    
    9185.0      0.99315    
    9190.0      0.99317    
    9195.0      0.99318    
    9200.0      0.99319    
    9205.0      0.99320    
    9210.0      0.99321    
    9215.0      0.99322    
    9220.0      0.99323    
    9225.0      0.99324    
    9230.0      0.99325    
    9235.0      0.99326    
    9240.0      0.99327    
    9245.0      0.99328    
    9250.0      0.99329    
    9255.0      0.99331    
    9260.0      0.99332    
    9265.0      0.99333    
    9270.0      0.99334    
    9275.0      0.99335    
    9280.0      0.99336    
    9285.0      0.99337    
    9290.0      0.99338    
    9295.0      0.99339    
    9300.0      0.99340    
    9305.0      0.99341    
    9310.0      0.99342    
    9315.0      0.99343    
    9320.0      0.99344    
    9325.0      0.99345    
    9330.0      0.99346    
    9335.0      0.99347    
    9340.0      0.99348    
    9345.0      0.99349    
    9350.0      0.99350    
    9355.0      0.99351    
    9360.0      0.99352    
    9365.0      0.99353    
    9370.0      0.99354    
    9375.0      0.99355    
    9380.0      0.99356    
    9385.0      0.99357    
    9390.0      0.99358    
    9395.0      0.99359    
    9400.0      0.99360    
    9405.0      0.99361    
    9410.0      0.99362    
    9415.0      0.99363    
    9420.0      0.99364    
    9425.0      0.99365    
    9430.0      0.99366    
    9435.0      0.99367    
    9440.0      0.99368    
    9445.0      0.99369    
    9450.0      0.99370    
    9455.0      0.99371    
    9460.0      0.99372    
    9465.0      0.99373    
    9470.0      0.99374    
    9475.0      0.99375    
    9480.0      0.99376    
    9485.0      0.99377    
    9490.0      0.99378    
    9495.0      0.99379    
    9500.0      0.99380    
    9505.0      0.99381    
    9510.0      0.99382    
    9515.0      0.99383    
    9520.0      0.99384    
    9525.0      0.99385    
    9530.0      0.99386    
    9535.0      0.99387    
    9540.0      0.99388    
    9545.0      0.99388    
    9550.0      0.99389    
    9555.0      0.99390    
    9560.0      0.99391    
    9565.0      0.99392    
    9570.0      0.99393    
    9575.0      0.99394    
    9580.0      0.99395    
    9585.0      0.99396    
    9590.0      0.99397    
    9595.0      0.99398    
    9600.0      0.99399    
    9605.0      0.99400    
    9610.0      0.99401    
    9615.0      0.99401    
    9620.0      0.99402    
    9625.0      0.99403    
    9630.0      0.99404    
    9635.0      0.99405    
    9640.0      0.99406    
    9645.0      0.99407    
    9650.0      0.99408    
    9655.0      0.99409    
    9660.0      0.99410    
    9665.0      0.99411    
    9670.0      0.99411    
    9675.0      0.99412    
    9680.0      0.99413    
    9685.0      0.99414    
    9690.0      0.99415    
    9695.0      0.99416    
    9700.0      0.99417    
    9705.0      0.99418    
    9710.0      0.99419    
    9715.0      0.99419    
    9720.0      0.99420    
    9725.0      0.99421    
    9730.0      0.99422    
    9735.0      0.99423    
    9740.0      0.99424    
    9745.0      0.99425    
    9750.0      0.99426    
    9755.0      0.99426    
    9760.0      0.99427    
    9765.0      0.99428    
    9770.0      0.99429    
    9775.0      0.99430    
    9780.0      0.99431    
    9785.0      0.99432    
    9790.0      0.99432    
    9795.0      0.99433    
    9800.0      0.99434    
    9805.0      0.99435    
    9810.0      0.99436    
    9815.0      0.99437    
    9820.0      0.99437    
    9825.0      0.99438    
    9830.0      0.99439    
    9835.0      0.99440    
    9840.0      0.99441    
    9845.0      0.99442    
    9850.0      0.99442    
    9855.0      0.99443    
    9860.0      0.99444    
    9865.0      0.99445    
    9870.0      0.99446    
    9875.0      0.99447    
    9880.0      0.99447    
    9885.0      0.99448    
    9890.0      0.99449    
    9895.0      0.99450    
    9900.0      0.99451    
    9905.0      0.99452    
    9910.0      0.99452    
    9915.0      0.99453    
    9920.0      0.99454    
    9925.0      0.99455    
    9930.0      0.99456    
    9935.0      0.99456    
    9940.0      0.99457    
    9945.0      0.99458    
    9950.0      0.99459    
    9955.0      0.99460    
    9960.0      0.99460    
    9965.0      0.99461    
    9970.0      0.99462    
    9975.0      0.99463    
    9980.0      0.99464    
    9985.0      0.99464    
    9990.0      0.99465    
    9995.0      0.99466    
    10000.      0.99467    