 Cu Density=8.96 Thickness=1. microns
 Photon Energy (eV), Transmission
    10.000      0.30228E-33
    14.980      0.14630E-41
    19.960      0.61685E-41
    24.940      0.63155E-37
    29.920      0.29315E-41
    34.900      0.19459E-35
    39.880      0.31641E-30
    44.860      0.14685E-29
    49.840      0.30399E-29
    54.820      0.95278E-29
    59.800      0.22946E-28
    64.780      0.75242E-28
    69.760      0.28911E-27
    74.740      0.21351E-26
    79.720      0.12014E-25
    84.700      0.51427E-25
    89.680      0.11553E-24
    94.660      0.23244E-24
    99.640      0.36671E-24
    104.62      0.55713E-24
    109.60      0.92324E-24
    114.58      0.16187E-23
    119.56      0.27551E-23
    124.54      0.60951E-23
    129.52      0.17257E-22
    134.50      0.46107E-22
    139.48      0.11674E-21
    144.46      0.28541E-21
    149.44      0.12227E-20
    154.42      0.57967E-20
    159.40      0.24929E-19
    164.38      0.98165E-19
    169.36      0.35647E-18
    174.34      0.16290E-17
    179.32      0.87316E-17
    184.30      0.41841E-16
    189.28      0.18106E-15
    194.26      0.71419E-15
    199.24      0.26968E-14
    204.22      0.10661E-13
    209.20      0.39316E-13
    214.18      0.13359E-12
    219.16      0.40293E-12
    224.14      0.11359E-11
    229.12      0.30183E-11
    234.10      0.75939E-11
    239.08      0.18163E-10
    244.06      0.41628E-10
    249.04      0.94983E-10
    254.02      0.20789E-09
    259.00      0.43671E-09
    263.98      0.88307E-09
    268.96      0.17232E-08
    273.94      0.32534E-08
    278.92      0.59549E-08
    283.90      0.10589E-07
    288.88      0.18327E-07
    293.86      0.30926E-07
    298.84      0.50960E-07
    303.82      0.82496E-07
    308.80      0.13339E-06
    313.78      0.21221E-06
    318.76      0.33072E-06
    323.74      0.50551E-06
    328.72      0.75868E-06
    333.70      0.11192E-05
    338.68      0.16245E-05
    343.66      0.23219E-05
    348.64      0.32709E-05
    353.62      0.45451E-05
    358.60      0.62369E-05
    363.58      0.84809E-05
    368.56      0.11417E-04
    373.54      0.15195E-04
    378.52      0.20006E-04
    383.50      0.26072E-04
    388.48      0.33645E-04
    393.46      0.43017E-04
    398.44      0.54515E-04
    403.42      0.68507E-04
    408.40      0.85807E-04
    413.38      0.10795E-03
    418.36      0.13749E-03
    423.34      0.17370E-03
    428.32      0.21754E-03
    433.30      0.27018E-03
    438.28      0.33288E-03
    443.26      0.40705E-03
    448.24      0.49416E-03
    453.22      0.59581E-03
    458.20      0.71065E-03
    463.18      0.83821E-03
    468.16      0.96175E-03
    473.14      0.10990E-02
    478.12      0.12509E-02
    483.10      0.14185E-02
    488.08      0.16027E-02
    493.06      0.18046E-02
    498.04      0.20251E-02
    503.02      0.22680E-02
    508.00      0.25387E-02
    512.98      0.28553E-02
    517.96      0.32119E-02
    522.94      0.36007E-02
    527.92      0.40230E-02
    532.90      0.44806E-02
    537.88      0.49748E-02
    542.86      0.55073E-02
    547.84      0.60794E-02
    552.82      0.66924E-02
    557.80      0.73479E-02
    562.78      0.80470E-02
    567.76      0.87910E-02
    572.74      0.95810E-02
    577.72      0.10418E-01
    582.70      0.11341E-01
    587.68      0.12337E-01
    592.66      0.13412E-01
    597.64      0.14554E-01
    602.62      0.15758E-01
    607.60      0.17025E-01
    612.58      0.18356E-01
    617.56      0.19753E-01
    622.54      0.21215E-01
    627.52      0.22742E-01
    632.50      0.24337E-01
    637.48      0.25998E-01
    642.46      0.27752E-01
    647.44      0.29578E-01
    652.42      0.31543E-01
    657.40      0.33596E-01
    662.38      0.35725E-01
    667.36      0.37930E-01
    672.34      0.40210E-01
    677.32      0.42565E-01
    682.30      0.44994E-01
    687.28      0.47497E-01
    692.26      0.50073E-01
    697.24      0.52720E-01
    702.22      0.55439E-01
    707.20      0.57965E-01
    712.18      0.60537E-01
    717.16      0.62991E-01
    722.14      0.65410E-01
    727.12      0.67869E-01
    732.10      0.70369E-01
    737.08      0.72907E-01
    742.06      0.75484E-01
    747.04      0.78098E-01
    752.02      0.80748E-01
    757.00      0.83434E-01
    761.98      0.86154E-01
    766.96      0.88908E-01
    771.94      0.91694E-01
    776.92      0.94627E-01
    781.90      0.97638E-01
    786.88      0.10075    
    791.86      0.10417    
    796.84      0.10762    
    801.82      0.11112    
    806.80      0.11465    
    811.78      0.11822    
    816.76      0.12183    
    821.74      0.12547    
    826.72      0.12914    
    831.70      0.13285    
    836.68      0.13659    
    841.66      0.14035    
    846.64      0.14414    
    851.62      0.14799    
    856.60      0.15292    
    861.58      0.15789    
    866.56      0.16294    
    871.54      0.16814    
    876.52      0.17339    
    881.50      0.17853    
    886.48      0.18354    
    891.46      0.18857    
    896.44      0.19325    
    901.42      0.19770    
    906.40      0.20216    
    911.38      0.21056    
    916.36      0.22084    
    921.34      0.23123    
    926.32      0.24171    
    931.30      0.25227    
    936.28      0.89572E-05
    941.26      0.10685E-04
    946.24      0.12701E-04
    951.22      0.15045E-04
    956.20      0.17760E-04
    961.18      0.20897E-04
    966.16      0.24507E-04
    971.14      0.28650E-04
    976.12      0.33387E-04
    981.10      0.38792E-04
    986.08      0.44941E-04
    991.06      0.51916E-04
    996.04      0.59806E-04
    1001.0      0.68709E-04
    1006.0      0.78727E-04
    1011.0      0.89973E-04
    1016.0      0.10257E-03
    1020.9      0.11664E-03
    1025.9      0.13232E-03
    1030.9      0.14975E-03
    1035.9      0.16624E-03
    1040.9      0.18303E-03
    1045.8      0.20122E-03
    1050.8      0.21889E-03
    1055.8      0.23417E-03
    1060.8      0.25030E-03
    1065.8      0.26733E-03
    1070.7      0.28527E-03
    1075.7      0.30417E-03
    1080.7      0.32407E-03
    1085.7      0.34500E-03
    1090.7      0.36699E-03
    1095.6      0.39009E-03
    1100.6      0.41433E-03
    1105.6      0.43976E-03
    1110.6      0.46641E-03
    1115.6      0.49433E-03
    1120.5      0.52356E-03
    1125.5      0.55414E-03
    1130.5      0.58612E-03
    1135.5      0.61953E-03
    1140.5      0.65440E-03
    1145.4      0.69080E-03
    1150.4      0.72875E-03
    1155.4      0.76831E-03
    1160.4      0.80953E-03
    1165.4      0.85244E-03
    1170.3      0.89710E-03
    1175.3      0.94355E-03
    1180.3      0.99184E-03
    1185.3      0.10420E-02
    1190.3      0.10941E-02
    1195.2      0.11482E-02
    1200.2      0.12043E-02
    1205.2      0.12624E-02
    1210.2      0.13227E-02
    1215.2      0.13852E-02
    1220.1      0.14498E-02
    1225.1      0.15167E-02
    1230.1      0.15859E-02
    1235.1      0.16642E-02
    1240.1      0.17481E-02
    1245.0      0.18353E-02
    1250.0      0.19257E-02
    1255.0      0.20285E-02
    1260.0      0.21393E-02
    1265.0      0.22546E-02
    1269.9      0.23746E-02
    1274.9      0.25114E-02
    1279.9      0.26612E-02
    1284.9      0.28177E-02
    1289.9      0.29811E-02
    1294.8      0.31515E-02
    1299.8      0.33292E-02
    1304.8      0.35144E-02
    1309.8      0.37072E-02
    1314.8      0.39079E-02
    1319.7      0.41165E-02
    1324.7      0.43333E-02
    1329.7      0.45584E-02
    1334.7      0.47922E-02
    1339.7      0.50347E-02
    1344.6      0.52861E-02
    1349.6      0.55466E-02
    1354.6      0.58163E-02
    1359.6      0.60955E-02
    1364.6      0.63843E-02
    1369.5      0.66828E-02
    1374.5      0.69913E-02
    1379.5      0.73098E-02
    1384.5      0.76384E-02
    1389.5      0.79774E-02
    1394.4      0.83270E-02
    1399.4      0.86873E-02
    1404.4      0.90586E-02
    1409.4      0.94408E-02
    1414.4      0.98342E-02
    1419.3      0.10239E-01
    1424.3      0.10655E-01
    1429.3      0.11083E-01
    1434.3      0.11522E-01
    1439.3      0.11973E-01
    1444.2      0.12436E-01
    1449.2      0.12912E-01
    1454.2      0.13399E-01
    1459.2      0.13899E-01
    1464.2      0.14411E-01
    1469.1      0.14935E-01
    1474.1      0.15473E-01
    1479.1      0.16023E-01
    1484.1      0.16587E-01
    1489.1      0.17163E-01
    1494.0      0.17752E-01
    1499.0      0.18356E-01
    1504.0      0.18973E-01
    1509.0      0.19603E-01
    1514.0      0.20247E-01
    1518.9      0.20904E-01
    1523.9      0.21575E-01
    1528.9      0.22260E-01
    1533.9      0.22958E-01
    1538.9      0.23669E-01
    1543.8      0.24394E-01
    1548.8      0.25133E-01
    1553.8      0.25885E-01
    1558.8      0.26652E-01
    1563.8      0.27432E-01
    1568.7      0.28225E-01
    1573.7      0.29033E-01
    1578.7      0.29854E-01
    1583.7      0.30690E-01
    1588.7      0.31539E-01
    1593.6      0.32402E-01
    1598.6      0.33279E-01
    1603.6      0.34169E-01
    1608.6      0.35074E-01
    1613.6      0.35992E-01
    1618.5      0.36924E-01
    1623.5      0.37870E-01
    1628.5      0.38830E-01
    1633.5      0.39803E-01
    1638.5      0.40790E-01
    1643.4      0.41790E-01
    1648.4      0.42805E-01
    1653.4      0.43832E-01
    1658.4      0.44873E-01
    1663.4      0.45928E-01
    1668.3      0.46996E-01
    1673.3      0.48077E-01
    1678.3      0.49172E-01
    1683.3      0.50279E-01
    1688.3      0.51400E-01
    1693.2      0.52534E-01
    1698.2      0.53681E-01
    1703.2      0.54841E-01
    1708.2      0.56013E-01
    1713.2      0.57199E-01
    1718.1      0.58397E-01
    1723.1      0.59608E-01
    1728.1      0.60842E-01
    1733.1      0.62096E-01
    1738.1      0.63363E-01
    1743.0      0.64643E-01
    1748.0      0.65935E-01
    1753.0      0.67240E-01
    1758.0      0.68564E-01
    1763.0      0.69900E-01
    1767.9      0.71249E-01
    1772.9      0.72610E-01
    1777.9      0.73983E-01
    1782.9      0.75369E-01
    1787.9      0.76772E-01
    1792.8      0.78186E-01
    1797.8      0.79613E-01
    1802.8      0.81051E-01
    1807.8      0.82500E-01
    1812.8      0.83960E-01
    1817.7      0.85432E-01
    1822.7      0.86914E-01
    1827.7      0.88408E-01
    1832.7      0.89912E-01
    1837.7      0.91427E-01
    1842.6      0.92953E-01
    1847.6      0.94488E-01
    1852.6      0.96035E-01
    1857.6      0.97591E-01
    1862.6      0.99157E-01
    1867.5      0.10073    
    1872.5      0.10232    
    1877.5      0.10391    
    1882.5      0.10552    
    1887.5      0.10713    
    1892.4      0.10876    
    1897.4      0.11039    
    1902.4      0.11203    
    1907.4      0.11368    
    1912.4      0.11534    
    1917.3      0.11701    
    1922.3      0.11869    
    1927.3      0.12038    
    1932.3      0.12207    
    1937.3      0.12377    
    1942.2      0.12548    
    1947.2      0.12720    
    1952.2      0.12892    
    1957.2      0.13065    
    1962.2      0.13239    
    1967.1      0.13414    
    1972.1      0.13589    
    1977.1      0.13765    
    1982.1      0.13942    
    1987.1      0.14119    
    1992.0      0.14297    
    1997.0      0.14474    
    2002.0      0.14651    
    2007.0      0.14829    
    2012.0      0.15008    
    2016.9      0.15187    
    2021.9      0.15367    
    2026.9      0.15548    
    2031.9      0.15732    
    2036.9      0.15917    
    2041.8      0.16103    
    2046.8      0.16289    
    2051.8      0.16475    
    2056.8      0.16662    
    2061.8      0.16850    
    2066.7      0.17038    
    2071.7      0.17227    
    2076.7      0.17416    
    2081.7      0.17605    
    2086.7      0.17795    
    2091.6      0.17985    
    2096.6      0.18176    
    2101.6      0.18368    
    2106.6      0.18559    
    2111.6      0.18751    
    2116.5      0.18944    
    2121.5      0.19137    
    2126.5      0.19330    
    2131.5      0.19523    
    2136.5      0.19717    
    2141.4      0.19911    
    2146.4      0.20106    
    2151.4      0.20301    
    2156.4      0.20496    
    2161.4      0.20691    
    2166.3      0.20887    
    2171.3      0.21083    
    2176.3      0.21280    
    2181.3      0.21476    
    2186.3      0.21673    
    2191.2      0.21870    
    2196.2      0.22067    
    2201.2      0.22264    
    2206.2      0.22462    
    2211.2      0.22659    
    2216.1      0.22857    
    2221.1      0.23055    
    2226.1      0.23253    
    2231.1      0.23451    
    2236.1      0.23650    
    2241.0      0.23848    
    2246.0      0.24046    
    2251.0      0.24245    
    2256.0      0.24443    
    2261.0      0.24642    
    2265.9      0.24840    
    2270.9      0.25039    
    2275.9      0.25238    
    2280.9      0.25437    
    2285.9      0.25636    
    2290.8      0.25834    
    2295.8      0.26033    
    2300.8      0.26232    
    2305.8      0.26431    
    2310.8      0.26630    
    2315.7      0.26829    
    2320.7      0.27028    
    2325.7      0.27227    
    2330.7      0.27426    
    2335.7      0.27625    
    2340.6      0.27823    
    2345.6      0.28022    
    2350.6      0.28220    
    2355.6      0.28418    
    2360.6      0.28616    
    2365.5      0.28814    
    2370.5      0.29012    
    2375.5      0.29210    
    2380.5      0.29407    
    2385.5      0.29605    
    2390.4      0.29803    
    2395.4      0.30000    
    2400.4      0.30198    
    2405.4      0.30395    
    2410.4      0.30592    
    2415.3      0.30788    
    2420.3      0.30985    
    2425.3      0.31181    
    2430.3      0.31377    
    2435.3      0.31573    
    2440.2      0.31768    
    2445.2      0.31964    
    2450.2      0.32159    
    2455.2      0.32353    
    2460.2      0.32548    
    2465.1      0.32743    
    2470.1      0.32938    
    2475.1      0.33132    
    2480.1      0.33326    
    2485.1      0.33519    
    2490.0      0.33712    
    2495.0      0.33905    
    2500.0      0.34098    
    2527.5      0.35156    
    2547.5      0.35919    
    2567.4      0.36676    
    2587.4      0.37429    
    2607.4      0.38176    
    2627.4      0.38918    
    2647.4      0.39654    
    2667.3      0.40383    
    2687.3      0.41104    
    2707.3      0.41820    
    2727.3      0.42529    
    2747.3      0.43231    
    2767.2      0.43926    
    2787.2      0.44614    
    2807.2      0.45295    
    2827.2      0.45969    
    2847.2      0.46636    
    2867.1      0.47295    
    2887.1      0.47947    
    2907.1      0.48592    
    2927.1      0.49229    
    2947.1      0.49858    
    2967.0      0.50481    
    2987.0      0.51095    
    3007.0      0.51703    
    3027.0      0.52302    
    3047.0      0.52895    
    3066.9      0.53480    
    3086.9      0.54057    
    3106.9      0.54628    
    3126.9      0.55191    
    3146.9      0.55746    
    3166.8      0.56295    
    3186.8      0.56836    
    3206.8      0.57370    
    3226.8      0.57898    
    3246.8      0.58418    
    3266.7      0.58931    
    3286.7      0.59437    
    3306.7      0.59936    
    3326.7      0.60429    
    3346.7      0.60915    
    3366.6      0.61394    
    3386.6      0.61867    
    3406.6      0.62333    
    3426.6      0.62793    
    3446.6      0.63246    
    3466.5      0.63693    
    3486.5      0.64134    
    3506.5      0.64569    
    3526.5      0.64997    
    3546.5      0.65420    
    3566.4      0.65837    
    3586.4      0.66248    
    3606.4      0.66653    
    3626.4      0.67052    
    3646.4      0.67446    
    3666.3      0.67834    
    3686.3      0.68217    
    3706.3      0.68595    
    3726.3      0.68967    
    3746.3      0.69334    
    3766.2      0.69695    
    3786.2      0.70052    
    3806.2      0.70404    
    3826.2      0.70750    
    3846.2      0.71092    
    3866.1      0.71429    
    3886.1      0.71761    
    3906.1      0.72089    
    3926.1      0.72412    
    3946.1      0.72730    
    3966.0      0.73044    
    3986.0      0.73353    
    4006.0      0.73658    
    4026.0      0.73959    
    4046.0      0.74256    
    4065.9      0.74548    
    4085.9      0.74836    
    4105.9      0.75121    
    4125.9      0.75401    
    4145.9      0.75678    
    4165.8      0.75950    
    4185.8      0.76219    
    4205.8      0.76485    
    4225.8      0.76746    
    4245.8      0.77004    
    4265.7      0.77258    
    4285.7      0.77509    
    4305.7      0.77756    
    4325.7      0.78000    
    4345.7      0.78241    
    4365.6      0.78478    
    4385.6      0.78712    
    4405.6      0.78943    
    4425.6      0.79170    
    4445.6      0.79395    
    4465.5      0.79616    
    4485.5      0.79835    
    4505.5      0.80050    
    4525.5      0.80263    
    4545.5      0.80473    
    4565.4      0.80680    
    4585.4      0.80885    
    4605.4      0.81086    
    4625.4      0.81285    
    4645.4      0.81481    
    4665.3      0.81674    
    4685.3      0.81865    
    4705.3      0.82054    
    4725.3      0.82240    
    4745.3      0.82423    
    4765.2      0.82604    
    4785.2      0.82783    
    4805.2      0.82959    
    4825.2      0.83133    
    4845.2      0.83305    
    4865.1      0.83475    
    4885.1      0.83642    
    4905.1      0.83807    
    4925.1      0.83970    
    4945.1      0.84131    
    4965.0      0.84290    
    4985.0      0.84447    
    5005.0      0.84602    
    5025.0      0.84755    
    5045.0      0.84906    
    5064.9      0.85055    
    5084.9      0.85202    
    5104.9      0.85347    
    5124.9      0.85490    
    5144.9      0.85632    
    5164.8      0.85772    
    5184.8      0.85910    
    5204.8      0.86046    
    5224.8      0.86181    
    5244.8      0.86314    
    5264.7      0.86446    
    5284.7      0.86575    
    5304.7      0.86704    
    5324.7      0.86830    
    5344.7      0.86955    
    5364.6      0.87078    
    5384.6      0.87200    
    5404.6      0.87321    
    5424.6      0.87440    
    5444.6      0.87557    
    5464.5      0.87673    
    5484.5      0.87788    
    5504.5      0.87902    
    5524.5      0.88014    
    5544.5      0.88124    
    5564.4      0.88234    
    5584.4      0.88342    
    5604.4      0.88448    
    5624.4      0.88554    
    5644.4      0.88658    
    5664.3      0.88761    
    5684.3      0.88863    
    5704.3      0.88963    
    5724.3      0.89063    
    5744.3      0.89161    
    5764.2      0.89258    
    5784.2      0.89354    
    5804.2      0.89449    
    5824.2      0.89543    
    5844.2      0.89635    
    5864.1      0.89727    
    5884.1      0.89818    
    5904.1      0.89908    
    5924.1      0.89996    
    5944.1      0.90084    
    5964.0      0.90170    
    5984.0      0.90256    
    6004.0      0.90340    
    6024.0      0.90424    
    6044.0      0.90506    
    6063.9      0.90588    
    6083.9      0.90669    
    6103.9      0.90749    
    6123.9      0.90828    
    6143.9      0.90906    
    6163.8      0.90983    
    6183.8      0.91060    
    6203.8      0.91136    
    6223.8      0.91210    
    6243.8      0.91284    
    6263.7      0.91358    
    6283.7      0.91430    
    6303.7      0.91502    
    6323.7      0.91572    
    6343.7      0.91642    
    6363.6      0.91712    
    6383.6      0.91780    
    6403.6      0.91848    
    6423.6      0.91915    
    6443.6      0.91981    
    6463.5      0.92047    
    6483.5      0.92112    
    6503.5      0.92176    
    6523.5      0.92240    
    6543.5      0.92303    
    6563.4      0.92365    
    6583.4      0.92427    
    6603.4      0.92488    
    6623.4      0.92548    
    6643.4      0.92608    
    6663.3      0.92667    
    6683.3      0.92725    
    6703.3      0.92783    
    6723.3      0.92840    
    6743.3      0.92897    
    6763.2      0.92953    
    6783.2      0.93009    
    6803.2      0.93064    
    6823.2      0.93118    
    6843.2      0.93172    
    6863.1      0.93225    
    6883.1      0.93278    
    6903.1      0.93330    
    6923.1      0.93382    
    6943.1      0.93433    
    6963.0      0.93483    
    6983.0      0.93534    
    7003.0      0.93583    
    7023.0      0.93633    
    7043.0      0.93681    
    7062.9      0.93729    
    7082.9      0.93777    
    7102.9      0.93824    
    7122.9      0.93871    
    7142.9      0.93917    
    7162.8      0.93963    
    7182.8      0.94009    
    7202.8      0.94054    
    7222.8      0.94098    
    7242.8      0.94142    
    7262.7      0.94186    
    7282.7      0.94229    
    7302.7      0.94272    
    7322.7      0.94314    
    7342.7      0.94356    
    7362.6      0.94398    
    7382.6      0.94439    
    7402.6      0.94480    
    7422.6      0.94521    
    7442.6      0.94561    
    7462.5      0.94600    
    7482.5      0.94640    
    7502.5      0.94679    
    7522.5      0.94717    
    7542.5      0.94755    
    7562.4      0.94793    
    7582.4      0.94831    
    7602.4      0.94868    
    7622.4      0.94905    
    7642.4      0.94941    
    7662.3      0.94977    
    7682.3      0.95013    
    7702.3      0.95048    
    7722.3      0.95084    
    7742.3      0.95118    
    7762.2      0.95153    
    7782.2      0.95187    
    7802.2      0.95221    
    7822.2      0.95254    
    7842.2      0.95288    
    7862.1      0.95321    
    7882.1      0.95353    
    7902.1      0.95386    
    7922.1      0.95418    
    7942.1      0.95450    
    7962.0      0.95481    
    7982.0      0.95512    
    8002.0      0.95543    
    8022.0      0.95574    
    8042.0      0.95604    
    8061.9      0.95635    
    8081.9      0.95664    
    8101.9      0.95694    
    8121.9      0.95723    
    8141.9      0.95752    
    8161.8      0.95781    
    8181.8      0.95810    
    8201.8      0.95838    
    8221.8      0.95866    
    8241.8      0.95894    
    8261.7      0.95922    
    8281.7      0.95949    
    8301.7      0.95976    
    8321.7      0.96003    
    8341.7      0.96030    
    8361.6      0.96056    
    8381.6      0.96083    
    8401.6      0.96109    
    8421.6      0.96134    
    8441.6      0.96160    
    8461.5      0.96185    
    8481.5      0.96210    
    8501.5      0.96235    
    8521.5      0.96260    
    8541.5      0.96284    
    8561.4      0.96309    
    8581.4      0.96333    
    8601.4      0.96357    
    8621.4      0.96380    
    8641.4      0.96404    
    8661.3      0.96427    
    8681.3      0.96450    
    8701.3      0.96473    
    8721.3      0.96496    
    8741.3      0.96518    
    8761.2      0.96541    
    8781.2      0.96563    
    8801.2      0.96585    
    8821.2      0.96607    
    8841.2      0.96628    
    8861.1      0.96650    
    8881.1      0.96671    
    8901.1      0.96692    
    8921.1      0.96713    
    8941.1      0.96734    
    8961.0      0.96754    
    8981.0      0.77529    
    9001.0      0.77636    
    9021.0      0.77743    
    9041.0      0.77850    
    9060.9      0.77955    
    9080.9      0.78060    
    9100.9      0.78164    
    9120.9      0.78268    
    9140.9      0.78371    
    9160.8      0.78473    
    9180.8      0.78576    
    9200.8      0.78677    
    9220.8      0.78778    
    9240.8      0.78878    
    9260.7      0.78978    
    9280.7      0.79077    
    9300.7      0.79175    
    9320.7      0.79274    
    9340.7      0.79371    
    9360.6      0.79468    
    9380.6      0.79565    
    9400.6      0.79661    
    9420.6      0.79756    
    9440.6      0.79851    
    9460.5      0.79945    
    9480.5      0.80039    
    9500.5      0.80133    
    9520.5      0.80226    
    9540.5      0.80318    
    9560.4      0.80410    
    9580.4      0.80501    
    9600.4      0.80591    
    9620.4      0.80682    
    9640.4      0.80772    
    9660.3      0.80861    
    9680.3      0.80950    
    9700.3      0.81038    
    9720.3      0.81126    
    9740.3      0.81213    
    9760.2      0.81300    
    9780.2      0.81386    
    9800.2      0.81472    
    9820.2      0.81558    
    9840.2      0.81643    
    9860.1      0.81727    
    9880.1      0.81811    
    9900.1      0.81894    
    9920.1      0.81977    
    9940.1      0.82060    
    9960.0      0.82142    
    9980.0      0.82224    
    10000.      0.82305    
