 C10H8O4 Density=1.4 Thickness=2. microns
 Photon Energy (eV), Transmission
    10.000      0.10589E-28
    11.000      0.12290E-33
    12.000      0.41379E-40
    13.000      0.00000    
    14.000      0.00000    
    15.000      0.00000    
    16.000      0.00000    
    17.000      0.00000    
    18.000      0.00000    
    19.000      0.00000    
    20.000      0.00000    
    21.000      0.00000    
    22.000      0.00000    
    23.000      0.00000    
    24.000      0.00000    
    25.000      0.00000    
    26.000      0.00000    
    27.000      0.00000    
    28.000      0.00000    
    29.000      0.14013E-44
    30.000      0.44561E-42
    31.000      0.80663E-40
    32.000      0.89950E-38
    33.000      0.65517E-36
    34.000      0.32787E-34
    35.000      0.11732E-32
    36.000      0.28690E-31
    37.000      0.84692E-30
    38.000      0.21816E-28
    39.000      0.44200E-27
    40.000      0.81895E-26
    41.000      0.13318E-24
    42.000      0.17709E-23
    43.000      0.19598E-22
    44.000      0.18369E-21
    45.000      0.14652E-20
    46.000      0.87466E-20
    47.000      0.45472E-19
    48.000      0.21499E-18
    49.000      0.98282E-18
    50.000      0.47111E-17
    51.000      0.20659E-16
    52.000      0.83417E-16
    53.000      0.31197E-15
    54.000      0.10268E-14
    55.000      0.30504E-14
    56.000      0.85905E-14
    57.000      0.23015E-13
    58.000      0.58839E-13
    59.000      0.14400E-12
    60.000      0.33824E-12
    61.000      0.77879E-12
    62.000      0.18223E-11
    63.000      0.41741E-11
    64.000      0.92041E-11
    65.000      0.19582E-10
    66.000      0.40275E-10
    67.000      0.80246E-10
    68.000      0.15517E-09
    69.000      0.29171E-09
    70.000      0.53352E-09
    71.000      0.94968E-09
    72.000      0.16501E-08
    73.000      0.28042E-08
    74.000      0.46663E-08
    75.000      0.76112E-08
    76.000      0.12182E-07
    77.000      0.19152E-07
    78.000      0.29604E-07
    79.000      0.45022E-07
    80.000      0.67426E-07
    81.000      0.99515E-07
    82.000      0.14485E-06
    83.000      0.20806E-06
    84.000      0.29511E-06
    85.000      0.41359E-06
    86.000      0.57300E-06
    87.000      0.78519E-06
    88.000      0.10647E-05
    89.000      0.14294E-05
    90.000      0.19006E-05
    91.000      0.25041E-05
    92.000      0.32705E-05
    93.000      0.42356E-05
    94.000      0.54416E-05
    95.000      0.69371E-05
    96.000      0.87784E-05
    97.000      0.11030E-04
    98.000      0.13809E-04
    99.000      0.17255E-04
    100.00      0.21773E-04
    101.00      0.27377E-04
    102.00      0.34181E-04
    103.00      0.42385E-04
    104.00      0.52216E-04
    105.00      0.63928E-04
    106.00      0.77797E-04
    107.00      0.94124E-04
    108.00      0.11325E-03
    109.00      0.13554E-03
    110.00      0.16137E-03
    111.00      0.19118E-03
    112.00      0.22542E-03
    113.00      0.26457E-03
    114.00      0.30915E-03
    115.00      0.35970E-03
    116.00      0.41678E-03
    117.00      0.48102E-03
    118.00      0.55304E-03
    119.00      0.63349E-03
    120.00      0.72307E-03
    121.00      0.82246E-03
    122.00      0.93240E-03
    123.00      0.10536E-02
    124.00      0.11870E-02
    125.00      0.13332E-02
    126.00      0.14930E-02
    127.00      0.16673E-02
    128.00      0.18570E-02
    129.00      0.20628E-02
    130.00      0.22855E-02
    131.00      0.25259E-02
    132.00      0.27851E-02
    133.00      0.30686E-02
    134.00      0.33768E-02
    135.00      0.37042E-02
    136.00      0.40506E-02
    137.00      0.44201E-02
    138.00      0.48138E-02
    139.00      0.52323E-02
    140.00      0.56764E-02
    141.00      0.61470E-02
    142.00      0.66446E-02
    143.00      0.71701E-02
    144.00      0.77242E-02
    145.00      0.83077E-02
    146.00      0.89211E-02
    147.00      0.95650E-02
    148.00      0.10240E-01
    149.00      0.10947E-01
    150.00      0.11686E-01
    151.00      0.12458E-01
    152.00      0.13263E-01
    153.00      0.14102E-01
    154.00      0.14975E-01
    155.00      0.15882E-01
    156.00      0.16825E-01
    157.00      0.17802E-01
    158.00      0.18815E-01
    159.00      0.19864E-01
    160.00      0.20948E-01
    161.00      0.22069E-01
    162.00      0.23226E-01
    163.00      0.24419E-01
    164.00      0.25649E-01
    165.00      0.26914E-01
    166.00      0.28217E-01
    167.00      0.29556E-01
    168.00      0.30932E-01
    169.00      0.32344E-01
    170.00      0.33792E-01
    171.00      0.35277E-01
    172.00      0.36797E-01
    173.00      0.38354E-01
    174.00      0.39945E-01
    175.00      0.41573E-01
    176.00      0.43236E-01
    177.00      0.44934E-01
    178.00      0.46666E-01
    179.00      0.48432E-01
    180.00      0.50279E-01
    181.00      0.52231E-01
    182.00      0.54222E-01
    183.00      0.56391E-01
    184.00      0.58744E-01
    185.00      0.61146E-01
    186.00      0.63692E-01
    187.00      0.66368E-01
    188.00      0.69099E-01
    189.00      0.71886E-01
    190.00      0.74730E-01
    191.00      0.77626E-01
    192.00      0.80573E-01
    193.00      0.83570E-01
    194.00      0.86617E-01
    195.00      0.89712E-01
    196.00      0.92856E-01
    197.00      0.96045E-01
    198.00      0.99280E-01
    199.00      0.10256    
    200.00      0.10588    
    201.00      0.10924    
    202.00      0.11265    
    203.00      0.11609    
    204.00      0.11958    
    205.00      0.12309    
    206.00      0.12665    
    207.00      0.13024    
    208.00      0.13386    
    209.00      0.13752    
    210.00      0.14120    
    211.00      0.14492    
    212.00      0.14866    
    213.00      0.15244    
    214.00      0.15623    
    215.00      0.16006    
    216.00      0.16390    
    217.00      0.16777    
    218.00      0.17166    
    219.00      0.17554    
    220.00      0.17945    
    221.00      0.18337    
    222.00      0.18726    
    223.00      0.19115    
    224.00      0.19506    
    225.00      0.19898    
    226.00      0.20291    
    227.00      0.20685    
    228.00      0.21081    
    229.00      0.21477    
    230.00      0.21874    
    231.00      0.22272    
    232.00      0.22670    
    233.00      0.23069    
    234.00      0.23469    
    235.00      0.23869    
    236.00      0.24268    
    237.00      0.24661    
    238.00      0.25054    
    239.00      0.25448    
    240.00      0.25833    
    241.00      0.26200    
    242.00      0.26566    
    243.00      0.26932    
    244.00      0.27301    
    245.00      0.27676    
    246.00      0.28050    
    247.00      0.28423    
    248.00      0.28812    
    249.00      0.29219    
    250.00      0.29626    
    251.00      0.30032    
    252.00      0.30436    
    253.00      0.30840    
    254.00      0.31243    
    255.00      0.31645    
    256.00      0.32047    
    257.00      0.32447    
    258.00      0.32846    
    259.00      0.33243    
    260.00      0.33640    
    261.00      0.34035    
    262.00      0.34429    
    263.00      0.34822    
    264.00      0.35213    
    265.00      0.35603    
    266.00      0.35992    
    267.00      0.36379    
    268.00      0.36764    
    269.00      0.37148    
    270.00      0.37531    
    271.00      0.37912    
    272.00      0.38291    
    273.00      0.38669    
    274.00      0.39046    
    275.00      0.39422    
    276.00      0.39796    
    277.00      0.40168    
    278.00      0.40540    
    279.00      0.40910    
    280.00      0.41279    
    281.00      0.41645    
    282.00      0.42011    
    283.00      0.42375    
    284.00      0.42737    
    285.00      0.73842E-04
    286.00      0.79530E-04
    287.00      0.85585E-04
    288.00      0.92025E-04
    289.00      0.98869E-04
    290.00      0.10614E-03
    291.00      0.11385E-03
    292.00      0.12203E-03
    293.00      0.13070E-03
    294.00      0.13988E-03
    295.00      0.14959E-03
    296.00      0.15985E-03
    297.00      0.17070E-03
    298.00      0.18216E-03
    299.00      0.19424E-03
    300.00      0.20699E-03
    301.00      0.22042E-03
    302.00      0.23457E-03
    303.00      0.24946E-03
    304.00      0.26512E-03
    305.00      0.28159E-03
    306.00      0.29888E-03
    307.00      0.31703E-03
    308.00      0.33608E-03
    309.00      0.35606E-03
    310.00      0.37699E-03
    311.00      0.39893E-03
    312.00      0.42189E-03
    313.00      0.44592E-03
    314.00      0.47105E-03
    315.00      0.49731E-03
    316.00      0.52475E-03
    317.00      0.55340E-03
    318.00      0.58330E-03
    319.00      0.61449E-03
    320.00      0.64700E-03
    321.00      0.68088E-03
    322.00      0.71617E-03
    323.00      0.75291E-03
    324.00      0.79113E-03
    325.00      0.83089E-03
    326.00      0.87221E-03
    327.00      0.91515E-03
    328.00      0.95975E-03
    329.00      0.10060E-02
    330.00      0.10541E-02
    331.00      0.11039E-02
    332.00      0.11556E-02
    333.00      0.12092E-02
    334.00      0.12647E-02
    335.00      0.13222E-02
    336.00      0.13817E-02
    337.00      0.14432E-02
    338.00      0.15069E-02
    339.00      0.15728E-02
    340.00      0.16408E-02
    341.00      0.17111E-02
    342.00      0.17837E-02
    343.00      0.18587E-02
    344.00      0.19360E-02
    345.00      0.20159E-02
    346.00      0.20982E-02
    347.00      0.21830E-02
    348.00      0.22705E-02
    349.00      0.23606E-02
    350.00      0.24534E-02
    351.00      0.25489E-02
    352.00      0.26472E-02
    353.00      0.27484E-02
    354.00      0.28524E-02
    355.00      0.29594E-02
    356.00      0.30694E-02
    357.00      0.31824E-02
    358.00      0.32986E-02
    359.00      0.34178E-02
    360.00      0.35402E-02
    361.00      0.36659E-02
    362.00      0.37948E-02
    363.00      0.39271E-02
    364.00      0.40627E-02
    365.00      0.42017E-02
    366.00      0.43443E-02
    367.00      0.44903E-02
    368.00      0.46399E-02
    369.00      0.47931E-02
    370.00      0.49500E-02
    371.00      0.51106E-02
    372.00      0.52749E-02
    373.00      0.54430E-02
    374.00      0.56149E-02
    375.00      0.57907E-02
    376.00      0.59744E-02
    377.00      0.61708E-02
    378.00      0.63717E-02
    379.00      0.65773E-02
    380.00      0.67876E-02
    381.00      0.70027E-02
    382.00      0.72249E-02
    383.00      0.74588E-02
    384.00      0.76980E-02
    385.00      0.79427E-02
    386.00      0.81928E-02
    387.00      0.84485E-02
    388.00      0.87097E-02
    389.00      0.89768E-02
    390.00      0.92496E-02
    391.00      0.95281E-02
    392.00      0.98124E-02
    393.00      0.10103E-01
    394.00      0.10399E-01
    395.00      0.10701E-01
    396.00      0.11009E-01
    397.00      0.11323E-01
    398.00      0.11643E-01
    399.00      0.11970E-01
    400.00      0.12302E-01
    401.00      0.12641E-01
    402.00      0.12986E-01
    403.00      0.13338E-01
    404.00      0.13695E-01
    405.00      0.14060E-01
    406.00      0.14430E-01
    407.00      0.14808E-01
    408.00      0.15191E-01
    409.00      0.15581E-01
    410.00      0.15978E-01
    411.00      0.16382E-01
    412.00      0.16792E-01
    413.00      0.17209E-01
    414.00      0.17632E-01
    415.00      0.18062E-01
    416.00      0.18499E-01
    417.00      0.18943E-01
    418.00      0.19394E-01
    419.00      0.19851E-01
    420.00      0.20315E-01
    421.00      0.20787E-01
    422.00      0.21265E-01
    423.00      0.21750E-01
    424.00      0.22242E-01
    425.00      0.22741E-01
    426.00      0.23247E-01
    427.00      0.23760E-01
    428.00      0.24280E-01
    429.00      0.24807E-01
    430.00      0.25341E-01
    431.00      0.25882E-01
    432.00      0.26431E-01
    433.00      0.26986E-01
    434.00      0.27548E-01
    435.00      0.28118E-01
    436.00      0.28694E-01
    437.00      0.29278E-01
    438.00      0.29869E-01
    439.00      0.30466E-01
    440.00      0.31071E-01
    441.00      0.31683E-01
    442.00      0.32302E-01
    443.00      0.32929E-01
    444.00      0.33562E-01
    445.00      0.34202E-01
    446.00      0.34850E-01
    447.00      0.35504E-01
    448.00      0.36166E-01
    449.00      0.36834E-01
    450.00      0.37510E-01
    451.00      0.38193E-01
    452.00      0.38883E-01
    453.00      0.39579E-01
    454.00      0.40283E-01
    455.00      0.40994E-01
    456.00      0.41712E-01
    457.00      0.42436E-01
    458.00      0.43168E-01
    459.00      0.43906E-01
    460.00      0.44652E-01
    461.00      0.45404E-01
    462.00      0.46163E-01
    463.00      0.46929E-01
    464.00      0.47702E-01
    465.00      0.48482E-01
    466.00      0.49268E-01
    467.00      0.50062E-01
    468.00      0.50862E-01
    469.00      0.51668E-01
    470.00      0.52482E-01
    471.00      0.53302E-01
    472.00      0.54128E-01
    473.00      0.54962E-01
    474.00      0.55801E-01
    475.00      0.56648E-01
    476.00      0.57501E-01
    477.00      0.58360E-01
    478.00      0.59226E-01
    479.00      0.60099E-01
    480.00      0.60979E-01
    481.00      0.61864E-01
    482.00      0.62757E-01
    483.00      0.63655E-01
    484.00      0.64560E-01
    485.00      0.65471E-01
    486.00      0.66395E-01
    487.00      0.67335E-01
    488.00      0.68282E-01
    489.00      0.69235E-01
    490.00      0.70194E-01
    491.00      0.71160E-01
    492.00      0.72132E-01
    493.00      0.73110E-01
    494.00      0.74094E-01
    495.00      0.75084E-01
    496.00      0.76081E-01
    497.00      0.77083E-01
    498.00      0.78091E-01
    499.00      0.79106E-01
    500.00      0.80126E-01
    501.00      0.81152E-01
    502.00      0.82184E-01
    503.00      0.83222E-01
    504.00      0.84265E-01
    505.00      0.85314E-01
    506.00      0.86369E-01
    507.00      0.87429E-01
    508.00      0.88495E-01
    509.00      0.89566E-01
    510.00      0.90643E-01
    511.00      0.91725E-01
    512.00      0.92812E-01
    513.00      0.93905E-01
    514.00      0.95003E-01
    515.00      0.96106E-01
    516.00      0.97214E-01
    517.00      0.98327E-01
    518.00      0.99445E-01
    519.00      0.10057    
    520.00      0.10170    
    521.00      0.10283    
    522.00      0.10397    
    523.00      0.10511    
    524.00      0.10626    
    525.00      0.10741    
    526.00      0.10857    
    527.00      0.10973    
    528.00      0.11090    
    529.00      0.11207    
    530.00      0.11324    
    531.00      0.11442    
    532.00      0.11560    
    533.00      0.11679    
    534.00      0.11798    
    535.00      0.11918    
    536.00      0.12038    
    537.00      0.12159    
    538.00      0.12280    
    539.00      0.12401    
    540.00      0.12522    
    541.00      0.12645    
    542.00      0.12767    
    543.00      0.12890    
    544.00      0.19822E-01
    545.00      0.20180E-01
    546.00      0.20543E-01
    547.00      0.20910E-01
    548.00      0.21281E-01
    549.00      0.21656E-01
    550.00      0.22036E-01
    551.00      0.22419E-01
    552.00      0.22807E-01
    553.00      0.23199E-01
    554.00      0.23596E-01
    555.00      0.23996E-01
    556.00      0.24401E-01
    557.00      0.24809E-01
    558.00      0.25222E-01
    559.00      0.25640E-01
    560.00      0.26061E-01
    561.00      0.26487E-01
    562.00      0.26917E-01
    563.00      0.27350E-01
    564.00      0.27788E-01
    565.00      0.28231E-01
    566.00      0.28677E-01
    567.00      0.29128E-01
    568.00      0.29583E-01
    569.00      0.30042E-01
    570.00      0.30506E-01
    571.00      0.30970E-01
    572.00      0.31438E-01
    573.00      0.31911E-01
    574.00      0.32387E-01
    575.00      0.32867E-01
    576.00      0.33352E-01
    577.00      0.33841E-01
    578.00      0.34334E-01
    579.00      0.34831E-01
    580.00      0.35332E-01
    581.00      0.35836E-01
    582.00      0.36345E-01
    583.00      0.36857E-01
    584.00      0.37374E-01
    585.00      0.37895E-01
    586.00      0.38420E-01
    587.00      0.38949E-01
    588.00      0.39482E-01
    589.00      0.40019E-01
    590.00      0.40560E-01
    591.00      0.41104E-01
    592.00      0.41653E-01
    593.00      0.42206E-01
    594.00      0.42763E-01
    595.00      0.43324E-01
    596.00      0.43889E-01
    597.00      0.44458E-01
    598.00      0.45031E-01
    599.00      0.45608E-01
    600.00      0.46189E-01
    601.00      0.46774E-01
    602.00      0.47363E-01
    603.00      0.47956E-01
    604.00      0.48553E-01
    605.00      0.49154E-01
    606.00      0.49759E-01
    607.00      0.50368E-01
    608.00      0.50981E-01
    609.00      0.51598E-01
    610.00      0.52218E-01
    611.00      0.52843E-01
    612.00      0.53471E-01
    613.00      0.54104E-01
    614.00      0.54740E-01
    615.00      0.55380E-01
    616.00      0.56023E-01
    617.00      0.56671E-01
    618.00      0.57323E-01
    619.00      0.57979E-01
    620.00      0.58638E-01
    621.00      0.59302E-01
    622.00      0.59969E-01
    623.00      0.60640E-01
    624.00      0.61315E-01
    625.00      0.61993E-01
    626.00      0.62676E-01
    627.00      0.63361E-01
    628.00      0.64053E-01
    629.00      0.64755E-01
    630.00      0.65461E-01
    631.00      0.66170E-01
    632.00      0.66883E-01
    633.00      0.67600E-01
    634.00      0.68321E-01
    635.00      0.69045E-01
    636.00      0.69773E-01
    637.00      0.70504E-01
    638.00      0.71240E-01
    639.00      0.71993E-01
    640.00      0.72749E-01
    641.00      0.73509E-01
    642.00      0.74273E-01
    643.00      0.75040E-01
    644.00      0.75811E-01
    645.00      0.76586E-01
    646.00      0.77364E-01
    647.00      0.78146E-01
    648.00      0.78931E-01
    649.00      0.79727E-01
    650.00      0.80529E-01
    651.00      0.81335E-01
    652.00      0.82144E-01
    653.00      0.82957E-01
    654.00      0.83773E-01
    655.00      0.84593E-01
    656.00      0.85416E-01
    657.00      0.86243E-01
    658.00      0.87073E-01
    659.00      0.87907E-01
    660.00      0.88744E-01
    661.00      0.89585E-01
    662.00      0.90428E-01
    663.00      0.91276E-01
    664.00      0.92126E-01
    665.00      0.92980E-01
    666.00      0.93837E-01
    667.00      0.94698E-01
    668.00      0.95561E-01
    669.00      0.96428E-01
    670.00      0.97273E-01
    671.00      0.98106E-01
    672.00      0.98941E-01
    673.00      0.99780E-01
    674.00      0.10062    
    675.00      0.10147    
    676.00      0.10231    
    677.00      0.10316    
    678.00      0.10401    
    679.00      0.10487    
    680.00      0.10573    
    681.00      0.10656    
    682.00      0.10739    
    683.00      0.10822    
    684.00      0.10905    
    685.00      0.10988    
    686.00      0.11072    
    687.00      0.11156    
    688.00      0.11240    
    689.00      0.11324    
    690.00      0.11409    
    691.00      0.11494    
    692.00      0.11578    
    693.00      0.11662    
    694.00      0.11747    
    695.00      0.11832    
    696.00      0.11917    
    697.00      0.12002    
    698.00      0.12087    
    699.00      0.12173    
    700.00      0.12258    
    701.00      0.12344    
    702.00      0.12430    
    703.00      0.12521    
    704.00      0.12613    
    705.00      0.12706    
    706.00      0.12799    
    707.00      0.12893    
    708.00      0.12986    
    709.00      0.13080    
    710.00      0.13174    
    711.00      0.13268    
    712.00      0.13362    
    713.00      0.13457    
    714.00      0.13553    
    715.00      0.13652    
    716.00      0.13752    
    717.00      0.13852    
    718.00      0.13952    
    719.00      0.14052    
    720.00      0.14152    
    721.00      0.14253    
    722.00      0.14354    
    723.00      0.14455    
    724.00      0.14556    
    725.00      0.14658    
    726.00      0.14759    
    727.00      0.14861    
    728.00      0.14963    
    729.00      0.15065    
    730.00      0.15167    
    731.00      0.15270    
    732.00      0.15373    
    733.00      0.15475    
    734.00      0.15578    
    735.00      0.15682    
    736.00      0.15785    
    737.00      0.15889    
    738.00      0.15992    
    739.00      0.16096    
    740.00      0.16200    
    741.00      0.16305    
    742.00      0.16409    
    743.00      0.16514    
    744.00      0.16618    
    745.00      0.16723    
    746.00      0.16828    
    747.00      0.16933    
    748.00      0.17039    
    749.00      0.17144    
    750.00      0.17250    
    751.00      0.17356    
    752.00      0.17462    
    753.00      0.17568    
    754.00      0.17674    
    755.00      0.17780    
    756.00      0.17886    
    757.00      0.17993    
    758.00      0.18100    
    759.00      0.18207    
    760.00      0.18313    
    761.00      0.18420    
    762.00      0.18528    
    763.00      0.18636    
    764.00      0.18743    
    765.00      0.18851    
    766.00      0.18959    
    767.00      0.19067    
    768.00      0.19175    
    769.00      0.19283    
    770.00      0.19392    
    771.00      0.19500    
    772.00      0.19609    
    773.00      0.19717    
    774.00      0.19827    
    775.00      0.19937    
    776.00      0.20047    
    777.00      0.20157    
    778.00      0.20267    
    779.00      0.20378    
    780.00      0.20488    
    781.00      0.20598    
    782.00      0.20709    
    783.00      0.20820    
    784.00      0.20930    
    785.00      0.21041    
    786.00      0.21152    
    787.00      0.21264    
    788.00      0.21376    
    789.00      0.21488    
    790.00      0.21600    
    791.00      0.21712    
    792.00      0.21824    
    793.00      0.21937    
    794.00      0.22049    
    795.00      0.22161    
    796.00      0.22274    
    797.00      0.22386    
    798.00      0.22499    
    799.00      0.22611    
    800.00      0.22724    
    801.00      0.22837    
    802.00      0.22949    
    803.00      0.23062    
    804.00      0.23175    
    805.00      0.23288    
    806.00      0.23401    
    807.00      0.23513    
    808.00      0.23626    
    809.00      0.23739    
    810.00      0.23852    
    811.00      0.23965    
    812.00      0.24078    
    813.00      0.24191    
    814.00      0.24304    
    815.00      0.24417    
    816.00      0.24530    
    817.00      0.24643    
    818.00      0.24756    
    819.00      0.24870    
    820.00      0.24983    
    821.00      0.25096    
    822.00      0.25209    
    823.00      0.25322    
    824.00      0.25435    
    825.00      0.25548    
    826.00      0.25661    
    827.00      0.25774    
    828.00      0.25887    
    829.00      0.26000    
    830.00      0.26113    
    831.00      0.26226    
    832.00      0.26339    
    833.00      0.26452    
    834.00      0.26565    
    835.00      0.26678    
    836.00      0.26791    
    837.00      0.26904    
    838.00      0.27017    
    839.00      0.27129    
    840.00      0.27241    
    841.00      0.27353    
    842.00      0.27465    
    843.00      0.27577    
    844.00      0.27689    
    845.00      0.27800    
    846.00      0.27912    
    847.00      0.28024    
    848.00      0.28136    
    849.00      0.28247    
    850.00      0.28359    
    851.00      0.28470    
    852.00      0.28581    
    853.00      0.28692    
    854.00      0.28802    
    855.00      0.28913    
    856.00      0.29023    
    857.00      0.29133    
    858.00      0.29244    
    859.00      0.29354    
    860.00      0.29464    
    861.00      0.29574    
    862.00      0.29684    
    863.00      0.29794    
    864.00      0.29904    
    865.00      0.30014    
    866.00      0.30123    
    867.00      0.30232    
    868.00      0.30341    
    869.00      0.30450    
    870.00      0.30558    
    871.00      0.30667    
    872.00      0.30776    
    873.00      0.30884    
    874.00      0.30992    
    875.00      0.31101    
    876.00      0.31209    
    877.00      0.31317    
    878.00      0.31425    
    879.00      0.31533    
    880.00      0.31641    
    881.00      0.31749    
    882.00      0.31857    
    883.00      0.31965    
    884.00      0.32073    
    885.00      0.32180    
    886.00      0.32288    
    887.00      0.32395    
    888.00      0.32502    
    889.00      0.32610    
    890.00      0.32717    
    891.00      0.32824    
    892.00      0.32931    
    893.00      0.33038    
    894.00      0.33145    
    895.00      0.33251    
    896.00      0.33358    
    897.00      0.33465    
    898.00      0.33571    
    899.00      0.33677    
    900.00      0.33784    
    901.00      0.33890    
    902.00      0.33996    
    903.00      0.34102    
    904.00      0.34208    
    905.00      0.34314    
    906.00      0.34419    
    907.00      0.34525    
    908.00      0.34631    
    909.00      0.34736    
    910.00      0.34841    
    911.00      0.34947    
    912.00      0.35052    
    913.00      0.35157    
    914.00      0.35262    
    915.00      0.35366    
    916.00      0.35471    
    917.00      0.35576    
    918.00      0.35680    
    919.00      0.35785    
    920.00      0.35889    
    921.00      0.35993    
    922.00      0.36097    
    923.00      0.36202    
    924.00      0.36309    
    925.00      0.36415    
    926.00      0.36522    
    927.00      0.36628    
    928.00      0.36734    
    929.00      0.36840    
    930.00      0.36946    
    931.00      0.37052    
    932.00      0.37158    
    933.00      0.37263    
    934.00      0.37369    
    935.00      0.37474    
    936.00      0.37580    
    937.00      0.37685    
    938.00      0.37790    
    939.00      0.37896    
    940.00      0.38001    
    941.00      0.38106    
    942.00      0.38211    
    943.00      0.38317    
    944.00      0.38422    
    945.00      0.38526    
    946.00      0.38631    
    947.00      0.38736    
    948.00      0.38840    
    949.00      0.38944    
    950.00      0.39049    
    951.00      0.39153    
    952.00      0.39257    
    953.00      0.39361    
    954.00      0.39465    
    955.00      0.39569    
    956.00      0.39673    
    957.00      0.39777    
    958.00      0.39881    
    959.00      0.39984    
    960.00      0.40088    
    961.00      0.40191    
    962.00      0.40294    
    963.00      0.40397    
    964.00      0.40500    
    965.00      0.40603    
    966.00      0.40706    
    967.00      0.40808    
    968.00      0.40911    
    969.00      0.41013    
    970.00      0.41115    
    971.00      0.41217    
    972.00      0.41319    
    973.00      0.41421    
    974.00      0.41522    
    975.00      0.41624    
    976.00      0.41725    
    977.00      0.41826    
    978.00      0.41927    
    979.00      0.42028    
    980.00      0.42129    
    981.00      0.42230    
    982.00      0.42330    
    983.00      0.42431    
    984.00      0.42531    
    985.00      0.42631    
    986.00      0.42731    
    987.00      0.42830    
    988.00      0.42930    
    989.00      0.43029    
    990.00      0.43129    
    991.00      0.43228    
    992.00      0.43327    
    993.00      0.43426    
    994.00      0.43524    
    995.00      0.43623    
    996.00      0.43721    
    997.00      0.43820    
    998.00      0.43918    
    999.00      0.44016    
    1000.0      0.44113    
    1001.0      0.44211    
    1002.0      0.44308    
    1003.0      0.44406    
    1004.0      0.44503    
    1005.0      0.44600    
    1006.0      0.44697    
    1007.0      0.44794    
    1008.0      0.44890    
    1009.0      0.44987    
    1010.0      0.45083    
    1011.0      0.45179    
    1012.0      0.45275    
    1013.0      0.45371    
    1014.0      0.45466    
    1015.0      0.45562    
    1016.0      0.45657    
    1017.0      0.45752    
    1018.0      0.45846    
    1019.0      0.45941    
    1020.0      0.46035    
    1021.0      0.46129    
    1022.0      0.46223    
    1023.0      0.46316    
    1024.0      0.46410    
    1025.0      0.46503    
    1026.0      0.46596    
    1027.0      0.46690    
    1028.0      0.46782    
    1029.0      0.46875    
    1030.0      0.46968    
    1031.0      0.47060    
    1032.0      0.47153    
    1033.0      0.47246    
    1034.0      0.47338    
    1035.0      0.47431    
    1036.0      0.47524    
    1037.0      0.47616    
    1038.0      0.47709    
    1039.0      0.47801    
    1040.0      0.47893    
    1041.0      0.47984    
    1042.0      0.48076    
    1043.0      0.48168    
    1044.0      0.48259    
    1045.0      0.48350    
    1046.0      0.48441    
    1047.0      0.48532    
    1048.0      0.48623    
    1049.0      0.48714    
    1050.0      0.48805    
    1051.0      0.48896    
    1052.0      0.48987    
    1053.0      0.49078    
    1054.0      0.49169    
    1055.0      0.49260    
    1056.0      0.49350    
    1057.0      0.49440    
    1058.0      0.49530    
    1059.0      0.49620    
    1060.0      0.49710    
    1061.0      0.49800    
    1062.0      0.49889    
    1063.0      0.49979    
    1064.0      0.50068    
    1065.0      0.50157    
    1066.0      0.50246    
    1067.0      0.50335    
    1068.0      0.50423    
    1069.0      0.50512    
    1070.0      0.50600    
    1071.0      0.50688    
    1072.0      0.50776    
    1073.0      0.50864    
    1074.0      0.50951    
    1075.0      0.51039    
    1076.0      0.51126    
    1077.0      0.51213    
    1078.0      0.51300    
    1079.0      0.51387    
    1080.0      0.51474    
    1081.0      0.51561    
    1082.0      0.51647    
    1083.0      0.51733    
    1084.0      0.51819    
    1085.0      0.51905    
    1086.0      0.51991    
    1087.0      0.52077    
    1088.0      0.52162    
    1089.0      0.52248    
    1090.0      0.52333    
    1091.0      0.52418    
    1092.0      0.52503    
    1093.0      0.52588    
    1094.0      0.52672    
    1095.0      0.52757    
    1096.0      0.52841    
    1097.0      0.52925    
    1098.0      0.53009    
    1099.0      0.53093    
    1100.0      0.53176    
    1101.0      0.53260    
    1102.0      0.53343    
    1103.0      0.53427    
    1104.0      0.53510    
    1105.0      0.53593    
    1106.0      0.53676    
    1107.0      0.53758    
    1108.0      0.53841    
    1109.0      0.53923    
    1110.0      0.54005    
    1111.0      0.54087    
    1112.0      0.54169    
    1113.0      0.54251    
    1114.0      0.54332    
    1115.0      0.54414    
    1116.0      0.54495    
    1117.0      0.54576    
    1118.0      0.54657    
    1119.0      0.54738    
    1120.0      0.54819    
    1121.0      0.54899    
    1122.0      0.54979    
    1123.0      0.55060    
    1124.0      0.55140    
    1125.0      0.55220    
    1126.0      0.55299    
    1127.0      0.55379    
    1128.0      0.55458    
    1129.0      0.55537    
    1130.0      0.55617    
    1131.0      0.55696    
    1132.0      0.55774    
    1133.0      0.55853    
    1134.0      0.55932    
    1135.0      0.56010    
    1136.0      0.56088    
    1137.0      0.56166    
    1138.0      0.56244    
    1139.0      0.56322    
    1140.0      0.56400    
    1141.0      0.56477    
    1142.0      0.56554    
    1143.0      0.56632    
    1144.0      0.56709    
    1145.0      0.56785    
    1146.0      0.56862    
    1147.0      0.56939    
    1148.0      0.57015    
    1149.0      0.57091    
    1150.0      0.57168    
    1151.0      0.57244    
    1152.0      0.57320    
    1153.0      0.57395    
    1154.0      0.57471    
    1155.0      0.57546    
    1156.0      0.57622    
    1157.0      0.57697    
    1158.0      0.57772    
    1159.0      0.57847    
    1160.0      0.57921    
    1161.0      0.57996    
    1162.0      0.58070    
    1163.0      0.58145    
    1164.0      0.58219    
    1165.0      0.58293    
    1166.0      0.58367    
    1167.0      0.58440    
    1168.0      0.58514    
    1169.0      0.58587    
    1170.0      0.58661    
    1171.0      0.58734    
    1172.0      0.58807    
    1173.0      0.58880    
    1174.0      0.58952    
    1175.0      0.59025    
    1176.0      0.59097    
    1177.0      0.59170    
    1178.0      0.59242    
    1179.0      0.59314    
    1180.0      0.59386    
    1181.0      0.59457    
    1182.0      0.59529    
    1183.0      0.59600    
    1184.0      0.59672    
    1185.0      0.59743    
    1186.0      0.59814    
    1187.0      0.59885    
    1188.0      0.59955    
    1189.0      0.60026    
    1190.0      0.60097    
    1191.0      0.60167    
    1192.0      0.60237    
    1193.0      0.60307    
    1194.0      0.60377    
    1195.0      0.60447    
    1196.0      0.60516    
    1197.0      0.60586    
    1198.0      0.60655    
    1199.0      0.60725    
    1200.0      0.60794    
    1201.0      0.60863    
    1202.0      0.60931    
    1203.0      0.61000    
    1204.0      0.61069    
    1205.0      0.61137    
    1206.0      0.61205    
    1207.0      0.61273    
    1208.0      0.61341    
    1209.0      0.61409    
    1210.0      0.61477    
    1211.0      0.61545    
    1212.0      0.61612    
    1213.0      0.61679    
    1214.0      0.61747    
    1215.0      0.61814    
    1216.0      0.61881    
    1217.0      0.61947    
    1218.0      0.62014    
    1219.0      0.62081    
    1220.0      0.62147    
    1221.0      0.62213    
    1222.0      0.62279    
    1223.0      0.62345    
    1224.0      0.62411    
    1225.0      0.62477    
    1226.0      0.62543    
    1227.0      0.62608    
    1228.0      0.62673    
    1229.0      0.62739    
    1230.0      0.62804    
    1231.0      0.62869    
    1232.0      0.62934    
    1233.0      0.62999    
    1234.0      0.63064    
    1235.0      0.63128    
    1236.0      0.63193    
    1237.0      0.63257    
    1238.0      0.63322    
    1239.0      0.63386    
    1240.0      0.63450    
    1241.0      0.63514    
    1242.0      0.63578    
    1243.0      0.63642    
    1244.0      0.63705    
    1245.0      0.63769    
    1246.0      0.63832    
    1247.0      0.63895    
    1248.0      0.63958    
    1249.0      0.64021    
    1250.0      0.64084    
    1251.0      0.64147    
    1252.0      0.64210    
    1253.0      0.64272    
    1254.0      0.64335    
    1255.0      0.64398    
    1256.0      0.64460    
    1257.0      0.64522    
    1258.0      0.64584    
    1259.0      0.64646    
    1260.0      0.64708    
    1261.0      0.64770    
    1262.0      0.64832    
    1263.0      0.64893    
    1264.0      0.64955    
    1265.0      0.65016    
    1266.0      0.65077    
    1267.0      0.65138    
    1268.0      0.65199    
    1269.0      0.65260    
    1270.0      0.65320    
    1271.0      0.65381    
    1272.0      0.65441    
    1273.0      0.65502    
    1274.0      0.65563    
    1275.0      0.65623    
    1276.0      0.65684    
    1277.0      0.65744    
    1278.0      0.65804    
    1279.0      0.65864    
    1280.0      0.65924    
    1281.0      0.65984    
    1282.0      0.66043    
    1283.0      0.66103    
    1284.0      0.66162    
    1285.0      0.66221    
    1286.0      0.66280    
    1287.0      0.66339    
    1288.0      0.66398    
    1289.0      0.66457    
    1290.0      0.66516    
    1291.0      0.66574    
    1292.0      0.66633    
    1293.0      0.66691    
    1294.0      0.66749    
    1295.0      0.66807    
    1296.0      0.66865    
    1297.0      0.66923    
    1298.0      0.66981    
    1299.0      0.67038    
    1300.0      0.67096    
    1301.0      0.67153    
    1302.0      0.67210    
    1303.0      0.67267    
    1304.0      0.67324    
    1305.0      0.67381    
    1306.0      0.67438    
    1307.0      0.67494    
    1308.0      0.67551    
    1309.0      0.67607    
    1310.0      0.67663    
    1311.0      0.67720    
    1312.0      0.67776    
    1313.0      0.67832    
    1314.0      0.67887    
    1315.0      0.67943    
    1316.0      0.67999    
    1317.0      0.68054    
    1318.0      0.68109    
    1319.0      0.68165    
    1320.0      0.68220    
    1321.0      0.68275    
    1322.0      0.68330    
    1323.0      0.68384    
    1324.0      0.68439    
    1325.0      0.68494    
    1326.0      0.68548    
    1327.0      0.68602    
    1328.0      0.68657    
    1329.0      0.68711    
    1330.0      0.68765    
    1331.0      0.68819    
    1332.0      0.68872    
    1333.0      0.68926    
    1334.0      0.68980    
    1335.0      0.69033    
    1336.0      0.69086    
    1337.0      0.69140    
    1338.0      0.69193    
    1339.0      0.69246    
    1340.0      0.69299    
    1341.0      0.69351    
    1342.0      0.69404    
    1343.0      0.69457    
    1344.0      0.69509    
    1345.0      0.69561    
    1346.0      0.69614    
    1347.0      0.69666    
    1348.0      0.69718    
    1349.0      0.69770    
    1350.0      0.69822    
    1351.0      0.69873    
    1352.0      0.69925    
    1353.0      0.69976    
    1354.0      0.70028    
    1355.0      0.70079    
    1356.0      0.70130    
    1357.0      0.70181    
    1358.0      0.70232    
    1359.0      0.70283    
    1360.0      0.70334    
    1361.0      0.70384    
    1362.0      0.70435    
    1363.0      0.70485    
    1364.0      0.70536    
    1365.0      0.70586    
    1366.0      0.70636    
    1367.0      0.70686    
    1368.0      0.70736    
    1369.0      0.70786    
    1370.0      0.70836    
    1371.0      0.70885    
    1372.0      0.70935    
    1373.0      0.70984    
    1374.0      0.71033    
    1375.0      0.71083    
    1376.0      0.71132    
    1377.0      0.71181    
    1378.0      0.71229    
    1379.0      0.71278    
    1380.0      0.71327    
    1381.0      0.71376    
    1382.0      0.71424    
    1383.0      0.71472    
    1384.0      0.71521    
    1385.0      0.71569    
    1386.0      0.71617    
    1387.0      0.71665    
    1388.0      0.71713    
    1389.0      0.71761    
    1390.0      0.71808    
    1391.0      0.71856    
    1392.0      0.71903    
    1393.0      0.71951    
    1394.0      0.71998    
    1395.0      0.72045    
    1396.0      0.72093    
    1397.0      0.72140    
    1398.0      0.72186    
    1399.0      0.72233    
    1400.0      0.72280    
    1401.0      0.72327    
    1402.0      0.72373    
    1403.0      0.72420    
    1404.0      0.72466    
    1405.0      0.72512    
    1406.0      0.72558    
    1407.0      0.72604    
    1408.0      0.72650    
    1409.0      0.72696    
    1410.0      0.72742    
    1411.0      0.72788    
    1412.0      0.72833    
    1413.0      0.72879    
    1414.0      0.72924    
    1415.0      0.72970    
    1416.0      0.73015    
    1417.0      0.73060    
    1418.0      0.73105    
    1419.0      0.73150    
    1420.0      0.73195    
    1421.0      0.73240    
    1422.0      0.73284    
    1423.0      0.73329    
    1424.0      0.73373    
    1425.0      0.73418    
    1426.0      0.73462    
    1427.0      0.73506    
    1428.0      0.73550    
    1429.0      0.73594    
    1430.0      0.73638    
    1431.0      0.73682    
    1432.0      0.73726    
    1433.0      0.73770    
    1434.0      0.73813    
    1435.0      0.73857    
    1436.0      0.73900    
    1437.0      0.73943    
    1438.0      0.73987    
    1439.0      0.74030    
    1440.0      0.74073    
    1441.0      0.74116    
    1442.0      0.74159    
    1443.0      0.74201    
    1444.0      0.74244    
    1445.0      0.74287    
    1446.0      0.74329    
    1447.0      0.74372    
    1448.0      0.74414    
    1449.0      0.74456    
    1450.0      0.74499    
    1451.0      0.74541    
    1452.0      0.74583    
    1453.0      0.74625    
    1454.0      0.74667    
    1455.0      0.74708    
    1456.0      0.74750    
    1457.0      0.74792    
    1458.0      0.74833    
    1459.0      0.74875    
    1460.0      0.74916    
    1461.0      0.74957    
    1462.0      0.74999    
    1463.0      0.75040    
    1464.0      0.75081    
    1465.0      0.75122    
    1466.0      0.75163    
    1467.0      0.75203    
    1468.0      0.75244    
    1469.0      0.75285    
    1470.0      0.75325    
    1471.0      0.75366    
    1472.0      0.75406    
    1473.0      0.75447    
    1474.0      0.75487    
    1475.0      0.75527    
    1476.0      0.75567    
    1477.0      0.75607    
    1478.0      0.75647    
    1479.0      0.75687    
    1480.0      0.75727    
    1481.0      0.75767    
    1482.0      0.75807    
    1483.0      0.75846    
    1484.0      0.75886    
    1485.0      0.75925    
    1486.0      0.75964    
    1487.0      0.76004    
    1488.0      0.76043    
    1489.0      0.76082    
    1490.0      0.76121    
    1491.0      0.76160    
    1492.0      0.76199    
    1493.0      0.76238    
    1494.0      0.76277    
    1495.0      0.76316    
    1496.0      0.76354    
    1497.0      0.76393    
    1498.0      0.76432    
    1499.0      0.76471    
    1500.0      0.76509    
    1501.0      0.76548    
    1502.0      0.76586    
    1503.0      0.76625    
    1504.0      0.76663    
    1505.0      0.76701    
    1506.0      0.76739    
    1507.0      0.76777    
    1508.0      0.76815    
    1509.0      0.76853    
    1510.0      0.76891    
    1511.0      0.76929    
    1512.0      0.76966    
    1513.0      0.77004    
    1514.0      0.77041    
    1515.0      0.77079    
    1516.0      0.77116    
    1517.0      0.77154    
    1518.0      0.77191    
    1519.0      0.77228    
    1520.0      0.77265    
    1521.0      0.77302    
    1522.0      0.77339    
    1523.0      0.77376    
    1524.0      0.77413    
    1525.0      0.77449    
    1526.0      0.77486    
    1527.0      0.77523    
    1528.0      0.77559    
    1529.0      0.77595    
    1530.0      0.77632    
    1531.0      0.77668    
    1532.0      0.77704    
    1533.0      0.77740    
    1534.0      0.77776    
    1535.0      0.77812    
    1536.0      0.77848    
    1537.0      0.77884    
    1538.0      0.77920    
    1539.0      0.77956    
    1540.0      0.77991    
    1541.0      0.78027    
    1542.0      0.78062    
    1543.0      0.78098    
    1544.0      0.78133    
    1545.0      0.78168    
    1546.0      0.78203    
    1547.0      0.78238    
    1548.0      0.78273    
    1549.0      0.78308    
    1550.0      0.78343    
    1551.0      0.78378    
    1552.0      0.78413    
    1553.0      0.78447    
    1554.0      0.78482    
    1555.0      0.78517    
    1556.0      0.78551    
    1557.0      0.78585    
    1558.0      0.78620    
    1559.0      0.78654    
    1560.0      0.78688    
    1561.0      0.78722    
    1562.0      0.78756    
    1563.0      0.78790    
    1564.0      0.78824    
    1565.0      0.78858    
    1566.0      0.78892    
    1567.0      0.78926    
    1568.0      0.78959    
    1569.0      0.78993    
    1570.0      0.79026    
    1571.0      0.79060    
    1572.0      0.79093    
    1573.0      0.79127    
    1574.0      0.79160    
    1575.0      0.79193    
    1576.0      0.79226    
    1577.0      0.79259    
    1578.0      0.79292    
    1579.0      0.79325    
    1580.0      0.79358    
    1581.0      0.79391    
    1582.0      0.79423    
    1583.0      0.79456    
    1584.0      0.79489    
    1585.0      0.79521    
    1586.0      0.79554    
    1587.0      0.79586    
    1588.0      0.79618    
    1589.0      0.79651    
    1590.0      0.79683    
    1591.0      0.79715    
    1592.0      0.79747    
    1593.0      0.79779    
    1594.0      0.79811    
    1595.0      0.79843    
    1596.0      0.79875    
    1597.0      0.79907    
    1598.0      0.79938    
    1599.0      0.79970    
    1600.0      0.80001    
    1601.0      0.80033    
    1602.0      0.80064    
    1603.0      0.80096    
    1604.0      0.80127    
    1605.0      0.80158    
    1606.0      0.80189    
    1607.0      0.80221    
    1608.0      0.80252    
    1609.0      0.80283    
    1610.0      0.80314    
    1611.0      0.80344    
    1612.0      0.80375    
    1613.0      0.80406    
    1614.0      0.80437    
    1615.0      0.80467    
    1616.0      0.80498    
    1617.0      0.80528    
    1618.0      0.80559    
    1619.0      0.80589    
    1620.0      0.80620    
    1621.0      0.80650    
    1622.0      0.80680    
    1623.0      0.80710    
    1624.0      0.80740    
    1625.0      0.80770    
    1626.0      0.80800    
    1627.0      0.80830    
    1628.0      0.80860    
    1629.0      0.80890    
    1630.0      0.80920    
    1631.0      0.80949    
    1632.0      0.80979    
    1633.0      0.81008    
    1634.0      0.81038    
    1635.0      0.81067    
    1636.0      0.81097    
    1637.0      0.81126    
    1638.0      0.81155    
    1639.0      0.81185    
    1640.0      0.81214    
    1641.0      0.81243    
    1642.0      0.81272    
    1643.0      0.81301    
    1644.0      0.81330    
    1645.0      0.81359    
    1646.0      0.81387    
    1647.0      0.81416    
    1648.0      0.81445    
    1649.0      0.81473    
    1650.0      0.81502    
    1651.0      0.81531    
    1652.0      0.81559    
    1653.0      0.81587    
    1654.0      0.81616    
    1655.0      0.81644    
    1656.0      0.81672    
    1657.0      0.81701    
    1658.0      0.81729    
    1659.0      0.81757    
    1660.0      0.81785    
    1661.0      0.81813    
    1662.0      0.81841    
    1663.0      0.81869    
    1664.0      0.81896    
    1665.0      0.81924    
    1666.0      0.81952    
    1667.0      0.81980    
    1668.0      0.82007    
    1669.0      0.82035    
    1670.0      0.82062    
    1671.0      0.82090    
    1672.0      0.82117    
    1673.0      0.82144    
    1674.0      0.82172    
    1675.0      0.82199    
    1676.0      0.82226    
    1677.0      0.82253    
    1678.0      0.82280    
    1679.0      0.82307    
    1680.0      0.82334    
    1681.0      0.82361    
    1682.0      0.82388    
    1683.0      0.82415    
    1684.0      0.82441    
    1685.0      0.82468    
    1686.0      0.82495    
    1687.0      0.82521    
    1688.0      0.82548    
    1689.0      0.82574    
    1690.0      0.82601    
    1691.0      0.82627    
    1692.0      0.82653    
    1693.0      0.82680    
    1694.0      0.82706    
    1695.0      0.82732    
    1696.0      0.82758    
    1697.0      0.82784    
    1698.0      0.82810    
    1699.0      0.82836    
    1700.0      0.82862    
    1701.0      0.82888    
    1702.0      0.82914    
    1703.0      0.82940    
    1704.0      0.82965    
    1705.0      0.82991    
    1706.0      0.83017    
    1707.0      0.83042    
    1708.0      0.83068    
    1709.0      0.83093    
    1710.0      0.83119    
    1711.0      0.83144    
    1712.0      0.83169    
    1713.0      0.83195    
    1714.0      0.83220    
    1715.0      0.83245    
    1716.0      0.83270    
    1717.0      0.83295    
    1718.0      0.83320    
    1719.0      0.83345    
    1720.0      0.83370    
    1721.0      0.83395    
    1722.0      0.83420    
    1723.0      0.83445    
    1724.0      0.83469    
    1725.0      0.83494    
    1726.0      0.83519    
    1727.0      0.83544    
    1728.0      0.83568    
    1729.0      0.83593    
    1730.0      0.83618    
    1731.0      0.83642    
    1732.0      0.83667    
    1733.0      0.83691    
    1734.0      0.83716    
    1735.0      0.83740    
    1736.0      0.83765    
    1737.0      0.83789    
    1738.0      0.83813    
    1739.0      0.83837    
    1740.0      0.83862    
    1741.0      0.83886    
    1742.0      0.83910    
    1743.0      0.83934    
    1744.0      0.83958    
    1745.0      0.83982    
    1746.0      0.84006    
    1747.0      0.84029    
    1748.0      0.84053    
    1749.0      0.84077    
    1750.0      0.84101    
    1751.0      0.84124    
    1752.0      0.84148    
    1753.0      0.84172    
    1754.0      0.84195    
    1755.0      0.84219    
    1756.0      0.84242    
    1757.0      0.84266    
    1758.0      0.84289    
    1759.0      0.84312    
    1760.0      0.84336    
    1761.0      0.84359    
    1762.0      0.84382    
    1763.0      0.84405    
    1764.0      0.84429    
    1765.0      0.84452    
    1766.0      0.84475    
    1767.0      0.84498    
    1768.0      0.84521    
    1769.0      0.84544    
    1770.0      0.84566    
    1771.0      0.84589    
    1772.0      0.84612    
    1773.0      0.84635    
    1774.0      0.84658    
    1775.0      0.84680    
    1776.0      0.84703    
    1777.0      0.84725    
    1778.0      0.84748    
    1779.0      0.84770    
    1780.0      0.84793    
    1781.0      0.84815    
    1782.0      0.84838    
    1783.0      0.84860    
    1784.0      0.84882    
    1785.0      0.84905    
    1786.0      0.84927    
    1787.0      0.84949    
    1788.0      0.84971    
    1789.0      0.84993    
    1790.0      0.85015    
    1791.0      0.85037    
    1792.0      0.85059    
    1793.0      0.85081    
    1794.0      0.85103    
    1795.0      0.85125    
    1796.0      0.85147    
    1797.0      0.85169    
    1798.0      0.85190    
    1799.0      0.85212    
    1800.0      0.85234    
    1801.0      0.85255    
    1802.0      0.85277    
    1803.0      0.85298    
    1804.0      0.85320    
    1805.0      0.85341    
    1806.0      0.85363    
    1807.0      0.85384    
    1808.0      0.85405    
    1809.0      0.85427    
    1810.0      0.85448    
    1811.0      0.85469    
    1812.0      0.85490    
    1813.0      0.85511    
    1814.0      0.85532    
    1815.0      0.85554    
    1816.0      0.85575    
    1817.0      0.85596    
    1818.0      0.85616    
    1819.0      0.85637    
    1820.0      0.85658    
    1821.0      0.85679    
    1822.0      0.85700    
    1823.0      0.85720    
    1824.0      0.85741    
    1825.0      0.85762    
    1826.0      0.85782    
    1827.0      0.85803    
    1828.0      0.85824    
    1829.0      0.85844    
    1830.0      0.85865    
    1831.0      0.85885    
    1832.0      0.85905    
    1833.0      0.85926    
    1834.0      0.85946    
    1835.0      0.85966    
    1836.0      0.85987    
    1837.0      0.86007    
    1838.0      0.86027    
    1839.0      0.86047    
    1840.0      0.86067    
    1841.0      0.86087    
    1842.0      0.86107    
    1843.0      0.86127    
    1844.0      0.86147    
    1845.0      0.86167    
    1846.0      0.86187    
    1847.0      0.86207    
    1848.0      0.86226    
    1849.0      0.86246    
    1850.0      0.86266    
    1851.0      0.86286    
    1852.0      0.86305    
    1853.0      0.86325    
    1854.0      0.86344    
    1855.0      0.86364    
    1856.0      0.86383    
    1857.0      0.86403    
    1858.0      0.86422    
    1859.0      0.86442    
    1860.0      0.86461    
    1861.0      0.86480    
    1862.0      0.86500    
    1863.0      0.86519    
    1864.0      0.86538    
    1865.0      0.86557    
    1866.0      0.86576    
    1867.0      0.86595    
    1868.0      0.86614    
    1869.0      0.86633    
    1870.0      0.86652    
    1871.0      0.86671    
    1872.0      0.86690    
    1873.0      0.86709    
    1874.0      0.86728    
    1875.0      0.86747    
    1876.0      0.86766    
    1877.0      0.86784    
    1878.0      0.86803    
    1879.0      0.86822    
    1880.0      0.86840    
    1881.0      0.86859    
    1882.0      0.86878    
    1883.0      0.86896    
    1884.0      0.86915    
    1885.0      0.86933    
    1886.0      0.86952    
    1887.0      0.86970    
    1888.0      0.86988    
    1889.0      0.87007    
    1890.0      0.87025    
    1891.0      0.87043    
    1892.0      0.87062    
    1893.0      0.87080    
    1894.0      0.87098    
    1895.0      0.87116    
    1896.0      0.87134    
    1897.0      0.87152    
    1898.0      0.87170    
    1899.0      0.87188    
    1900.0      0.87206    
    1901.0      0.87224    
    1902.0      0.87242    
    1903.0      0.87260    
    1904.0      0.87278    
    1905.0      0.87296    
    1906.0      0.87313    
    1907.0      0.87331    
    1908.0      0.87349    
    1909.0      0.87367    
    1910.0      0.87384    
    1911.0      0.87402    
    1912.0      0.87419    
    1913.0      0.87437    
    1914.0      0.87455    
    1915.0      0.87472    
    1916.0      0.87490    
    1917.0      0.87507    
    1918.0      0.87524    
    1919.0      0.87542    
    1920.0      0.87559    
    1921.0      0.87576    
    1922.0      0.87594    
    1923.0      0.87611    
    1924.0      0.87628    
    1925.0      0.87645    
    1926.0      0.87662    
    1927.0      0.87679    
    1928.0      0.87697    
    1929.0      0.87714    
    1930.0      0.87731    
    1931.0      0.87748    
    1932.0      0.87765    
    1933.0      0.87782    
    1934.0      0.87798    
    1935.0      0.87815    
    1936.0      0.87832    
    1937.0      0.87849    
    1938.0      0.87866    
    1939.0      0.87882    
    1940.0      0.87899    
    1941.0      0.87916    
    1942.0      0.87933    
    1943.0      0.87949    
    1944.0      0.87966    
    1945.0      0.87982    
    1946.0      0.87999    
    1947.0      0.88015    
    1948.0      0.88032    
    1949.0      0.88048    
    1950.0      0.88065    
    1951.0      0.88081    
    1952.0      0.88097    
    1953.0      0.88114    
    1954.0      0.88130    
    1955.0      0.88146    
    1956.0      0.88163    
    1957.0      0.88179    
    1958.0      0.88195    
    1959.0      0.88211    
    1960.0      0.88227    
    1961.0      0.88243    
    1962.0      0.88259    
    1963.0      0.88276    
    1964.0      0.88292    
    1965.0      0.88308    
    1966.0      0.88323    
    1967.0      0.88339    
    1968.0      0.88355    
    1969.0      0.88371    
    1970.0      0.88387    
    1971.0      0.88403    
    1972.0      0.88419    
    1973.0      0.88434    
    1974.0      0.88450    
    1975.0      0.88466    
    1976.0      0.88482    
    1977.0      0.88497    
    1978.0      0.88513    
    1979.0      0.88528    
    1980.0      0.88544    
    1981.0      0.88559    
    1982.0      0.88575    
    1983.0      0.88590    
    1984.0      0.88606    
    1985.0      0.88621    
    1986.0      0.88637    
    1987.0      0.88652    
    1988.0      0.88667    
    1989.0      0.88683    
    1990.0      0.88698    
    1991.0      0.88713    
    1992.0      0.88729    
    1993.0      0.88744    
    1994.0      0.88759    
    1995.0      0.88774    
    1996.0      0.88789    
    1997.0      0.88804    
    1998.0      0.88819    
    1999.0      0.88834    
    2000.0      0.88849    
    2001.0      0.88864    
    2002.0      0.88878    
    2003.0      0.88893    
    2004.0      0.88908    
    2005.0      0.88923    
    2006.0      0.88938    
    2007.0      0.88952    
    2008.0      0.88967    
    2009.0      0.88982    
    2010.0      0.88996    
    2011.0      0.89011    
    2012.0      0.89026    
    2013.0      0.89040    
    2014.0      0.89055    
    2015.0      0.89069    
    2016.0      0.89084    
    2017.0      0.89098    
    2018.0      0.89113    
    2019.0      0.89127    
    2020.0      0.89141    
    2021.0      0.89156    
    2022.0      0.89170    
    2023.0      0.89185    
    2024.0      0.89199    
    2025.0      0.89213    
    2026.0      0.89227    
    2027.0      0.89242    
    2028.0      0.89256    
    2029.0      0.89271    
    2030.0      0.89285    
    2031.0      0.89299    
    2032.0      0.89314    
    2033.0      0.89328    
    2034.0      0.89342    
    2035.0      0.89356    
    2036.0      0.89370    
    2037.0      0.89385    
    2038.0      0.89399    
    2039.0      0.89413    
    2040.0      0.89427    
    2041.0      0.89441    
    2042.0      0.89455    
    2043.0      0.89469    
    2044.0      0.89483    
    2045.0      0.89497    
    2046.0      0.89511    
    2047.0      0.89525    
    2048.0      0.89539    
    2049.0      0.89553    
    2050.0      0.89566    
    2051.0      0.89580    
    2052.0      0.89594    
    2053.0      0.89608    
    2054.0      0.89621    
    2055.0      0.89635    
    2056.0      0.89649    
    2057.0      0.89663    
    2058.0      0.89676    
    2059.0      0.89690    
    2060.0      0.89703    
    2061.0      0.89717    
    2062.0      0.89731    
    2063.0      0.89744    
    2064.0      0.89758    
    2065.0      0.89771    
    2066.0      0.89785    
    2067.0      0.89798    
    2068.0      0.89812    
    2069.0      0.89825    
    2070.0      0.89838    
    2071.0      0.89852    
    2072.0      0.89865    
    2073.0      0.89878    
    2074.0      0.89892    
    2075.0      0.89905    
    2076.0      0.89918    
    2077.0      0.89931    
    2078.0      0.89945    
    2079.0      0.89958    
    2080.0      0.89971    
    2081.0      0.89984    
    2082.0      0.89997    
    2083.0      0.90010    
    2084.0      0.90023    
    2085.0      0.90036    
    2086.0      0.90049    
    2087.0      0.90062    
    2088.0      0.90075    
    2089.0      0.90088    
    2090.0      0.90101    
    2091.0      0.90114    
    2092.0      0.90127    
    2093.0      0.90140    
    2094.0      0.90153    
    2095.0      0.90166    
    2096.0      0.90178    
    2097.0      0.90191    
    2098.0      0.90204    
    2099.0      0.90217    
    2100.0      0.90229    
    2101.0      0.90242    
    2102.0      0.90255    
    2103.0      0.90267    
    2104.0      0.90280    
    2105.0      0.90293    
    2106.0      0.90305    
    2107.0      0.90318    
    2108.0      0.90330    
    2109.0      0.90343    
    2110.0      0.90355    
    2111.0      0.90368    
    2112.0      0.90380    
    2113.0      0.90393    
    2114.0      0.90405    
    2115.0      0.90418    
    2116.0      0.90430    
    2117.0      0.90442    
    2118.0      0.90455    
    2119.0      0.90467    
    2120.0      0.90479    
    2121.0      0.90492    
    2122.0      0.90504    
    2123.0      0.90516    
    2124.0      0.90528    
    2125.0      0.90541    
    2126.0      0.90553    
    2127.0      0.90565    
    2128.0      0.90577    
    2129.0      0.90589    
    2130.0      0.90601    
    2131.0      0.90613    
    2132.0      0.90625    
    2133.0      0.90638    
    2134.0      0.90650    
    2135.0      0.90662    
    2136.0      0.90674    
    2137.0      0.90685    
    2138.0      0.90697    
    2139.0      0.90709    
    2140.0      0.90721    
    2141.0      0.90733    
    2142.0      0.90745    
    2143.0      0.90757    
    2144.0      0.90769    
    2145.0      0.90780    
    2146.0      0.90792    
    2147.0      0.90804    
    2148.0      0.90816    
    2149.0      0.90827    
    2150.0      0.90839    
    2151.0      0.90851    
    2152.0      0.90863    
    2153.0      0.90874    
    2154.0      0.90886    
    2155.0      0.90897    
    2156.0      0.90909    
    2157.0      0.90921    
    2158.0      0.90932    
    2159.0      0.90944    
    2160.0      0.90955    
    2161.0      0.90967    
    2162.0      0.90978    
    2163.0      0.90990    
    2164.0      0.91001    
    2165.0      0.91012    
    2166.0      0.91024    
    2167.0      0.91035    
    2168.0      0.91047    
    2169.0      0.91058    
    2170.0      0.91069    
    2171.0      0.91081    
    2172.0      0.91092    
    2173.0      0.91103    
    2174.0      0.91114    
    2175.0      0.91126    
    2176.0      0.91137    
    2177.0      0.91148    
    2178.0      0.91159    
    2179.0      0.91170    
    2180.0      0.91182    
    2181.0      0.91193    
    2182.0      0.91204    
    2183.0      0.91215    
    2184.0      0.91226    
    2185.0      0.91237    
    2186.0      0.91248    
    2187.0      0.91259    
    2188.0      0.91270    
    2189.0      0.91281    
    2190.0      0.91292    
    2191.0      0.91303    
    2192.0      0.91314    
    2193.0      0.91325    
    2194.0      0.91336    
    2195.0      0.91346    
    2196.0      0.91357    
    2197.0      0.91368    
    2198.0      0.91379    
    2199.0      0.91390    
    2200.0      0.91401    
    2201.0      0.91411    
    2202.0      0.91422    
    2203.0      0.91433    
    2204.0      0.91444    
    2205.0      0.91454    
    2206.0      0.91465    
    2207.0      0.91476    
    2208.0      0.91486    
    2209.0      0.91497    
    2210.0      0.91508    
    2211.0      0.91518    
    2212.0      0.91529    
    2213.0      0.91539    
    2214.0      0.91550    
    2215.0      0.91560    
    2216.0      0.91571    
    2217.0      0.91581    
    2218.0      0.91592    
    2219.0      0.91602    
    2220.0      0.91613    
    2221.0      0.91623    
    2222.0      0.91634    
    2223.0      0.91644    
    2224.0      0.91654    
    2225.0      0.91665    
    2226.0      0.91675    
    2227.0      0.91685    
    2228.0      0.91696    
    2229.0      0.91706    
    2230.0      0.91716    
    2231.0      0.91727    
    2232.0      0.91737    
    2233.0      0.91747    
    2234.0      0.91757    
    2235.0      0.91767    
    2236.0      0.91778    
    2237.0      0.91788    
    2238.0      0.91798    
    2239.0      0.91808    
    2240.0      0.91818    
    2241.0      0.91828    
    2242.0      0.91838    
    2243.0      0.91848    
    2244.0      0.91858    
    2245.0      0.91869    
    2246.0      0.91879    
    2247.0      0.91889    
    2248.0      0.91899    
    2249.0      0.91908    
    2250.0      0.91918    
    2251.0      0.91928    
    2252.0      0.91938    
    2253.0      0.91948    
    2254.0      0.91958    
    2255.0      0.91968    
    2256.0      0.91978    
    2257.0      0.91988    
    2258.0      0.91997    
    2259.0      0.92007    
    2260.0      0.92017    
    2261.0      0.92027    
    2262.0      0.92037    
    2263.0      0.92046    
    2264.0      0.92056    
    2265.0      0.92066    
    2266.0      0.92076    
    2267.0      0.92085    
    2268.0      0.92095    
    2269.0      0.92105    
    2270.0      0.92114    
    2271.0      0.92124    
    2272.0      0.92133    
    2273.0      0.92143    
    2274.0      0.92153    
    2275.0      0.92162    
    2276.0      0.92172    
    2277.0      0.92181    
    2278.0      0.92191    
    2279.0      0.92200    
    2280.0      0.92210    
    2281.0      0.92219    
    2282.0      0.92229    
    2283.0      0.92238    
    2284.0      0.92248    
    2285.0      0.92257    
    2286.0      0.92267    
    2287.0      0.92276    
    2288.0      0.92285    
    2289.0      0.92295    
    2290.0      0.92304    
    2291.0      0.92313    
    2292.0      0.92323    
    2293.0      0.92332    
    2294.0      0.92341    
    2295.0      0.92350    
    2296.0      0.92360    
    2297.0      0.92369    
    2298.0      0.92378    
    2299.0      0.92387    
    2300.0      0.92397    
    2301.0      0.92406    
    2302.0      0.92415    
    2303.0      0.92424    
    2304.0      0.92433    
    2305.0      0.92442    
    2306.0      0.92451    
    2307.0      0.92461    
    2308.0      0.92470    
    2309.0      0.92479    
    2310.0      0.92488    
    2311.0      0.92497    
    2312.0      0.92506    
    2313.0      0.92515    
    2314.0      0.92524    
    2315.0      0.92533    
    2316.0      0.92542    
    2317.0      0.92551    
    2318.0      0.92560    
    2319.0      0.92569    
    2320.0      0.92578    
    2321.0      0.92586    
    2322.0      0.92595    
    2323.0      0.92604    
    2324.0      0.92613    
    2325.0      0.92622    
    2326.0      0.92631    
    2327.0      0.92640    
    2328.0      0.92648    
    2329.0      0.92657    
    2330.0      0.92666    
    2331.0      0.92675    
    2332.0      0.92683    
    2333.0      0.92692    
    2334.0      0.92701    
    2335.0      0.92710    
    2336.0      0.92718    
    2337.0      0.92727    
    2338.0      0.92736    
    2339.0      0.92744    
    2340.0      0.92753    
    2341.0      0.92762    
    2342.0      0.92770    
    2343.0      0.92779    
    2344.0      0.92787    
    2345.0      0.92796    
    2346.0      0.92805    
    2347.0      0.92813    
    2348.0      0.92822    
    2349.0      0.92830    
    2350.0      0.92839    
    2351.0      0.92847    
    2352.0      0.92856    
    2353.0      0.92864    
    2354.0      0.92873    
    2355.0      0.92881    
    2356.0      0.92890    
    2357.0      0.92898    
    2358.0      0.92906    
    2359.0      0.92915    
    2360.0      0.92923    
    2361.0      0.92932    
    2362.0      0.92940    
    2363.0      0.92948    
    2364.0      0.92957    
    2365.0      0.92965    
    2366.0      0.92973    
    2367.0      0.92981    
    2368.0      0.92990    
    2369.0      0.92998    
    2370.0      0.93006    
    2371.0      0.93015    
    2372.0      0.93023    
    2373.0      0.93031    
    2374.0      0.93039    
    2375.0      0.93047    
    2376.0      0.93056    
    2377.0      0.93064    
    2378.0      0.93072    
    2379.0      0.93080    
    2380.0      0.93088    
    2381.0      0.93096    
    2382.0      0.93104    
    2383.0      0.93112    
    2384.0      0.93121    
    2385.0      0.93129    
    2386.0      0.93137    
    2387.0      0.93145    
    2388.0      0.93153    
    2389.0      0.93161    
    2390.0      0.93169    
    2391.0      0.93177    
    2392.0      0.93185    
    2393.0      0.93193    
    2394.0      0.93201    
    2395.0      0.93209    
    2396.0      0.93217    
    2397.0      0.93224    
    2398.0      0.93232    
    2399.0      0.93240    
    2400.0      0.93248    
    2401.0      0.93256    
    2402.0      0.93264    
    2403.0      0.93272    
    2404.0      0.93280    
    2405.0      0.93287    
    2406.0      0.93295    
    2407.0      0.93303    
    2408.0      0.93311    
    2409.0      0.93319    
    2410.0      0.93326    
    2411.0      0.93334    
    2412.0      0.93342    
    2413.0      0.93350    
    2414.0      0.93357    
    2415.0      0.93365    
    2416.0      0.93373    
    2417.0      0.93380    
    2418.0      0.93388    
    2419.0      0.93396    
    2420.0      0.93403    
    2421.0      0.93411    
    2422.0      0.93419    
    2423.0      0.93426    
    2424.0      0.93434    
    2425.0      0.93441    
    2426.0      0.93449    
    2427.0      0.93457    
    2428.0      0.93464    
    2429.0      0.93472    
    2430.0      0.93479    
    2431.0      0.93487    
    2432.0      0.93494    
    2433.0      0.93502    
    2434.0      0.93509    
    2435.0      0.93517    
    2436.0      0.93524    
    2437.0      0.93532    
    2438.0      0.93539    
    2439.0      0.93547    
    2440.0      0.93554    
    2441.0      0.93561    
    2442.0      0.93569    
    2443.0      0.93576    
    2444.0      0.93584    
    2445.0      0.93591    
    2446.0      0.93598    
    2447.0      0.93606    
    2448.0      0.93613    
    2449.0      0.93620    
    2450.0      0.93628    
    2451.0      0.93635    
    2452.0      0.93642    
    2453.0      0.93650    
    2454.0      0.93657    
    2455.0      0.93664    
    2456.0      0.93671    
    2457.0      0.93679    
    2458.0      0.93686    
    2459.0      0.93693    
    2460.0      0.93700    
    2461.0      0.93707    
    2462.0      0.93715    
    2463.0      0.93722    
    2464.0      0.93729    
    2465.0      0.93736    
    2466.0      0.93743    
    2467.0      0.93750    
    2468.0      0.93757    
    2469.0      0.93765    
    2470.0      0.93772    
    2471.0      0.93779    
    2472.0      0.93786    
    2473.0      0.93793    
    2474.0      0.93800    
    2475.0      0.93807    
    2476.0      0.93814    
    2477.0      0.93821    
    2478.0      0.93828    
    2479.0      0.93835    
    2480.0      0.93842    
    2481.0      0.93849    
    2482.0      0.93856    
    2483.0      0.93863    
    2484.0      0.93870    
    2485.0      0.93877    
    2486.0      0.93884    
    2487.0      0.93891    
    2488.0      0.93898    
    2489.0      0.93905    
    2490.0      0.93911    
    2491.0      0.93918    
    2492.0      0.93925    
    2493.0      0.93932    
    2494.0      0.93939    
    2495.0      0.93946    
    2496.0      0.93953    
    2497.0      0.93959    
    2498.0      0.93966    
    2499.0      0.93973    
    2500.0      0.93980    
    2501.0      0.93987    
    2502.0      0.93993    
    2503.0      0.94000    
    2504.0      0.94007    
    2505.0      0.94014    
    2506.0      0.94020    
    2507.0      0.94027    
    2508.0      0.94034    
    2509.0      0.94041    
    2510.0      0.94047    
    2511.0      0.94054    
    2512.0      0.94061    
    2513.0      0.94067    
    2514.0      0.94074    
    2515.0      0.94081    
    2516.0      0.94087    
    2517.0      0.94094    
    2518.0      0.94101    
    2519.0      0.94107    
    2520.0      0.94114    
    2521.0      0.94120    
    2522.0      0.94127    
    2523.0      0.94133    
    2524.0      0.94140    
    2525.0      0.94147    
    2526.0      0.94153    
    2527.0      0.94160    
    2528.0      0.94166    
    2529.0      0.94173    
    2530.0      0.94179    
    2531.0      0.94186    
    2532.0      0.94192    
    2533.0      0.94199    
    2534.0      0.94205    
    2535.0      0.94212    
    2536.0      0.94218    
    2537.0      0.94224    
    2538.0      0.94231    
    2539.0      0.94237    
    2540.0      0.94244    
    2541.0      0.94250    
    2542.0      0.94256    
    2543.0      0.94263    
    2544.0      0.94269    
    2545.0      0.94276    
    2546.0      0.94282    
    2547.0      0.94288    
    2548.0      0.94295    
    2549.0      0.94301    
    2550.0      0.94307    
    2551.0      0.94314    
    2552.0      0.94320    
    2553.0      0.94326    
    2554.0      0.94332    
    2555.0      0.94339    
    2556.0      0.94345    
    2557.0      0.94351    
    2558.0      0.94358    
    2559.0      0.94364    
    2560.0      0.94370    
    2561.0      0.94376    
    2562.0      0.94382    
    2563.0      0.94389    
    2564.0      0.94395    
    2565.0      0.94401    
    2566.0      0.94407    
    2567.0      0.94413    
    2568.0      0.94419    
    2569.0      0.94426    
    2570.0      0.94432    
    2571.0      0.94438    
    2572.0      0.94444    
    2573.0      0.94450    
    2574.0      0.94456    
    2575.0      0.94462    
    2576.0      0.94468    
    2577.0      0.94474    
    2578.0      0.94481    
    2579.0      0.94487    
    2580.0      0.94493    
    2581.0      0.94499    
    2582.0      0.94505    
    2583.0      0.94511    
    2584.0      0.94517    
    2585.0      0.94523    
    2586.0      0.94529    
    2587.0      0.94535    
    2588.0      0.94541    
    2589.0      0.94547    
    2590.0      0.94553    
    2591.0      0.94559    
    2592.0      0.94565    
    2593.0      0.94571    
    2594.0      0.94576    
    2595.0      0.94582    
    2596.0      0.94588    
    2597.0      0.94594    
    2598.0      0.94600    
    2599.0      0.94606    
    2600.0      0.94612    
    2601.0      0.94618    
    2602.0      0.94624    
    2603.0      0.94630    
    2604.0      0.94635    
    2605.0      0.94641    
    2606.0      0.94647    
    2607.0      0.94653    
    2608.0      0.94659    
    2609.0      0.94664    
    2610.0      0.94670    
    2611.0      0.94676    
    2612.0      0.94682    
    2613.0      0.94688    
    2614.0      0.94693    
    2615.0      0.94699    
    2616.0      0.94705    
    2617.0      0.94711    
    2618.0      0.94716    
    2619.0      0.94722    
    2620.0      0.94728    
    2621.0      0.94734    
    2622.0      0.94739    
    2623.0      0.94745    
    2624.0      0.94751    
    2625.0      0.94756    
    2626.0      0.94762    
    2627.0      0.94768    
    2628.0      0.94773    
    2629.0      0.94779    
    2630.0      0.94785    
    2631.0      0.94790    
    2632.0      0.94796    
    2633.0      0.94801    
    2634.0      0.94807    
    2635.0      0.94813    
    2636.0      0.94818    
    2637.0      0.94824    
    2638.0      0.94829    
    2639.0      0.94835    
    2640.0      0.94840    
    2641.0      0.94846    
    2642.0      0.94852    
    2643.0      0.94857    
    2644.0      0.94863    
    2645.0      0.94868    
    2646.0      0.94874    
    2647.0      0.94879    
    2648.0      0.94885    
    2649.0      0.94890    
    2650.0      0.94896    
    2651.0      0.94901    
    2652.0      0.94907    
    2653.0      0.94912    
    2654.0      0.94917    
    2655.0      0.94923    
    2656.0      0.94928    
    2657.0      0.94934    
    2658.0      0.94939    
    2659.0      0.94945    
    2660.0      0.94950    
    2661.0      0.94955    
    2662.0      0.94961    
    2663.0      0.94966    
    2664.0      0.94972    
    2665.0      0.94977    
    2666.0      0.94982    
    2667.0      0.94988    
    2668.0      0.94993    
    2669.0      0.94998    
    2670.0      0.95004    
    2671.0      0.95009    
    2672.0      0.95014    
    2673.0      0.95020    
    2674.0      0.95025    
    2675.0      0.95030    
    2676.0      0.95036    
    2677.0      0.95041    
    2678.0      0.95046    
    2679.0      0.95051    
    2680.0      0.95057    
    2681.0      0.95062    
    2682.0      0.95067    
    2683.0      0.95072    
    2684.0      0.95078    
    2685.0      0.95083    
    2686.0      0.95088    
    2687.0      0.95093    
    2688.0      0.95098    
    2689.0      0.95104    
    2690.0      0.95109    
    2691.0      0.95114    
    2692.0      0.95119    
    2693.0      0.95124    
    2694.0      0.95129    
    2695.0      0.95135    
    2696.0      0.95140    
    2697.0      0.95145    
    2698.0      0.95150    
    2699.0      0.95155    
    2700.0      0.95160    
    2701.0      0.95165    
    2702.0      0.95170    
    2703.0      0.95176    
    2704.0      0.95181    
    2705.0      0.95186    
    2706.0      0.95191    
    2707.0      0.95196    
    2708.0      0.95201    
    2709.0      0.95206    
    2710.0      0.95211    
    2711.0      0.95216    
    2712.0      0.95221    
    2713.0      0.95226    
    2714.0      0.95231    
    2715.0      0.95236    
    2716.0      0.95241    
    2717.0      0.95246    
    2718.0      0.95251    
    2719.0      0.95256    
    2720.0      0.95261    
    2721.0      0.95266    
    2722.0      0.95271    
    2723.0      0.95276    
    2724.0      0.95281    
    2725.0      0.95286    
    2726.0      0.95291    
    2727.0      0.95296    
    2728.0      0.95301    
    2729.0      0.95306    
    2730.0      0.95311    
    2731.0      0.95315    
    2732.0      0.95320    
    2733.0      0.95325    
    2734.0      0.95330    
    2735.0      0.95335    
    2736.0      0.95340    
    2737.0      0.95345    
    2738.0      0.95350    
    2739.0      0.95354    
    2740.0      0.95359    
    2741.0      0.95364    
    2742.0      0.95369    
    2743.0      0.95374    
    2744.0      0.95379    
    2745.0      0.95383    
    2746.0      0.95388    
    2747.0      0.95393    
    2748.0      0.95398    
    2749.0      0.95403    
    2750.0      0.95407    
    2751.0      0.95412    
    2752.0      0.95417    
    2753.0      0.95422    
    2754.0      0.95426    
    2755.0      0.95431    
    2756.0      0.95436    
    2757.0      0.95441    
    2758.0      0.95445    
    2759.0      0.95450    
    2760.0      0.95455    
    2761.0      0.95460    
    2762.0      0.95464    
    2763.0      0.95469    
    2764.0      0.95474    
    2765.0      0.95478    
    2766.0      0.95483    
    2767.0      0.95488    
    2768.0      0.95492    
    2769.0      0.95497    
    2770.0      0.95502    
    2771.0      0.95506    
    2772.0      0.95511    
    2773.0      0.95516    
    2774.0      0.95520    
    2775.0      0.95525    
    2776.0      0.95529    
    2777.0      0.95534    
    2778.0      0.95539    
    2779.0      0.95543    
    2780.0      0.95548    
    2781.0      0.95552    
    2782.0      0.95557    
    2783.0      0.95561    
    2784.0      0.95566    
    2785.0      0.95571    
    2786.0      0.95575    
    2787.0      0.95580    
    2788.0      0.95584    
    2789.0      0.95589    
    2790.0      0.95593    
    2791.0      0.95598    
    2792.0      0.95602    
    2793.0      0.95607    
    2794.0      0.95611    
    2795.0      0.95616    
    2796.0      0.95620    
    2797.0      0.95625    
    2798.0      0.95629    
    2799.0      0.95634    
    2800.0      0.95638    
    2801.0      0.95643    
    2802.0      0.95647    
    2803.0      0.95652    
    2804.0      0.95656    
    2805.0      0.95660    
    2806.0      0.95665    
    2807.0      0.95669    
    2808.0      0.95674    
    2809.0      0.95678    
    2810.0      0.95683    
    2811.0      0.95687    
    2812.0      0.95691    
    2813.0      0.95696    
    2814.0      0.95700    
    2815.0      0.95705    
    2816.0      0.95709    
    2817.0      0.95713    
    2818.0      0.95718    
    2819.0      0.95722    
    2820.0      0.95726    
    2821.0      0.95731    
    2822.0      0.95735    
    2823.0      0.95739    
    2824.0      0.95744    
    2825.0      0.95748    
    2826.0      0.95752    
    2827.0      0.95757    
    2828.0      0.95761    
    2829.0      0.95765    
    2830.0      0.95769    
    2831.0      0.95774    
    2832.0      0.95778    
    2833.0      0.95782    
    2834.0      0.95787    
    2835.0      0.95791    
    2836.0      0.95795    
    2837.0      0.95799    
    2838.0      0.95804    
    2839.0      0.95808    
    2840.0      0.95812    
    2841.0      0.95816    
    2842.0      0.95821    
    2843.0      0.95825    
    2844.0      0.95829    
    2845.0      0.95833    
    2846.0      0.95837    
    2847.0      0.95842    
    2848.0      0.95846    
    2849.0      0.95850    
    2850.0      0.95854    
    2851.0      0.95858    
    2852.0      0.95863    
    2853.0      0.95867    
    2854.0      0.95871    
    2855.0      0.95875    
    2856.0      0.95879    
    2857.0      0.95883    
    2858.0      0.95887    
    2859.0      0.95892    
    2860.0      0.95896    
    2861.0      0.95900    
    2862.0      0.95904    
    2863.0      0.95908    
    2864.0      0.95912    
    2865.0      0.95916    
    2866.0      0.95920    
    2867.0      0.95925    
    2868.0      0.95929    
    2869.0      0.95933    
    2870.0      0.95937    
    2871.0      0.95941    
    2872.0      0.95945    
    2873.0      0.95949    
    2874.0      0.95953    
    2875.0      0.95957    
    2876.0      0.95961    
    2877.0      0.95965    
    2878.0      0.95969    
    2879.0      0.95973    
    2880.0      0.95977    
    2881.0      0.95981    
    2882.0      0.95985    
    2883.0      0.95989    
    2884.0      0.95993    
    2885.0      0.95997    
    2886.0      0.96001    
    2887.0      0.96005    
    2888.0      0.96009    
    2889.0      0.96013    
    2890.0      0.96017    
    2891.0      0.96021    
    2892.0      0.96025    
    2893.0      0.96029    
    2894.0      0.96033    
    2895.0      0.96037    
    2896.0      0.96041    
    2897.0      0.96045    
    2898.0      0.96049    
    2899.0      0.96053    
    2900.0      0.96057    
    2901.0      0.96061    
    2902.0      0.96064    
    2903.0      0.96068    
    2904.0      0.96072    
    2905.0      0.96076    
    2906.0      0.96080    
    2907.0      0.96084    
    2908.0      0.96088    
    2909.0      0.96092    
    2910.0      0.96096    
    2911.0      0.96099    
    2912.0      0.96103    
    2913.0      0.96107    
    2914.0      0.96111    
    2915.0      0.96115    
    2916.0      0.96119    
    2917.0      0.96122    
    2918.0      0.96126    
    2919.0      0.96130    
    2920.0      0.96134    
    2921.0      0.96138    
    2922.0      0.96142    
    2923.0      0.96145    
    2924.0      0.96149    
    2925.0      0.96153    
    2926.0      0.96157    
    2927.0      0.96160    
    2928.0      0.96164    
    2929.0      0.96168    
    2930.0      0.96172    
    2931.0      0.96176    
    2932.0      0.96179    
    2933.0      0.96183    
    2934.0      0.96187    
    2935.0      0.96191    
    2936.0      0.96194    
    2937.0      0.96198    
    2938.0      0.96202    
    2939.0      0.96206    
    2940.0      0.96209    
    2941.0      0.96213    
    2942.0      0.96217    
    2943.0      0.96220    
    2944.0      0.96224    
    2945.0      0.96228    
    2946.0      0.96232    
    2947.0      0.96235    
    2948.0      0.96239    
    2949.0      0.96243    
    2950.0      0.96246    
    2951.0      0.96250    
    2952.0      0.96254    
    2953.0      0.96257    
    2954.0      0.96261    
    2955.0      0.96265    
    2956.0      0.96268    
    2957.0      0.96272    
    2958.0      0.96276    
    2959.0      0.96279    
    2960.0      0.96283    
    2961.0      0.96286    
    2962.0      0.96290    
    2963.0      0.96294    
    2964.0      0.96297    
    2965.0      0.96301    
    2966.0      0.96304    
    2967.0      0.96308    
    2968.0      0.96312    
    2969.0      0.96315    
    2970.0      0.96319    
    2971.0      0.96322    
    2972.0      0.96326    
    2973.0      0.96330    
    2974.0      0.96333    
    2975.0      0.96337    
    2976.0      0.96340    
    2977.0      0.96344    
    2978.0      0.96347    
    2979.0      0.96351    
    2980.0      0.96354    
    2981.0      0.96358    
    2982.0      0.96361    
    2983.0      0.96365    
    2984.0      0.96369    
    2985.0      0.96372    
    2986.0      0.96376    
    2987.0      0.96379    
    2988.0      0.96383    
    2989.0      0.96386    
    2990.0      0.96390    
    2991.0      0.96393    
    2992.0      0.96397    
    2993.0      0.96400    
    2994.0      0.96403    
    2995.0      0.96407    
    2996.0      0.96410    
    2997.0      0.96414    
    2998.0      0.96417    
    2999.0      0.96421    
    3000.0      0.96424    
    3001.0      0.96428    
    3002.0      0.96431    
    3003.0      0.96435    
    3004.0      0.96438    
    3005.0      0.96441    
    3006.0      0.96445    
    3007.0      0.96448    
    3008.0      0.96452    
    3009.0      0.96455    
    3010.0      0.96458    
    3011.0      0.96462    
    3012.0      0.96465    
    3013.0      0.96469    
    3014.0      0.96472    
    3015.0      0.96475    
    3016.0      0.96479    
    3017.0      0.96482    
    3018.0      0.96486    
    3019.0      0.96489    
    3020.0      0.96492    
    3021.0      0.96496    
    3022.0      0.96499    
    3023.0      0.96502    
    3024.0      0.96506    
    3025.0      0.96509    
    3026.0      0.96512    
    3027.0      0.96516    
    3028.0      0.96519    
    3029.0      0.96522    
    3030.0      0.96526    
    3031.0      0.96529    
    3032.0      0.96532    
    3033.0      0.96536    
    3034.0      0.96539    
    3035.0      0.96542    
    3036.0      0.96546    
    3037.0      0.96549    
    3038.0      0.96552    
    3039.0      0.96555    
    3040.0      0.96559    
    3041.0      0.96562    
    3042.0      0.96565    
    3043.0      0.96569    
    3044.0      0.96572    
    3045.0      0.96575    
    3046.0      0.96578    
    3047.0      0.96582    
    3048.0      0.96585    
    3049.0      0.96588    
    3050.0      0.96591    
    3051.0      0.96595    
    3052.0      0.96598    
    3053.0      0.96601    
    3054.0      0.96604    
    3055.0      0.96608    
    3056.0      0.96611    
    3057.0      0.96614    
    3058.0      0.96617    
    3059.0      0.96620    
    3060.0      0.96624    
    3061.0      0.96627    
    3062.0      0.96630    
    3063.0      0.96633    
    3064.0      0.96636    
    3065.0      0.96640    
    3066.0      0.96643    
    3067.0      0.96646    
    3068.0      0.96649    
    3069.0      0.96652    
    3070.0      0.96655    
    3071.0      0.96659    
    3072.0      0.96662    
    3073.0      0.96665    
    3074.0      0.96668    
    3075.0      0.96671    
    3076.0      0.96674    
    3077.0      0.96677    
    3078.0      0.96681    
    3079.0      0.96684    
    3080.0      0.96687    
    3081.0      0.96690    
    3082.0      0.96693    
    3083.0      0.96696    
    3084.0      0.96699    
    3085.0      0.96702    
    3086.0      0.96706    
    3087.0      0.96709    
    3088.0      0.96712    
    3089.0      0.96715    
    3090.0      0.96718    
    3091.0      0.96721    
    3092.0      0.96724    
    3093.0      0.96727    
    3094.0      0.96730    
    3095.0      0.96733    
    3096.0      0.96736    
    3097.0      0.96739    
    3098.0      0.96742    
    3099.0      0.96746    
    3100.0      0.96749    
    3101.0      0.96752    
    3102.0      0.96755    
    3103.0      0.96758    
    3104.0      0.96761    
    3105.0      0.96764    
    3106.0      0.96767    
    3107.0      0.96770    
    3108.0      0.96773    
    3109.0      0.96776    
    3110.0      0.96779    
    3111.0      0.96782    
    3112.0      0.96785    
    3113.0      0.96788    
    3114.0      0.96791    
    3115.0      0.96794    
    3116.0      0.96797    
    3117.0      0.96800    
    3118.0      0.96803    
    3119.0      0.96806    
    3120.0      0.96809    
    3121.0      0.96812    
    3122.0      0.96815    
    3123.0      0.96818    
    3124.0      0.96821    
    3125.0      0.96824    
    3126.0      0.96827    
    3127.0      0.96830    
    3128.0      0.96832    
    3129.0      0.96835    
    3130.0      0.96838    
    3131.0      0.96841    
    3132.0      0.96844    
    3133.0      0.96847    
    3134.0      0.96850    
    3135.0      0.96853    
    3136.0      0.96856    
    3137.0      0.96859    
    3138.0      0.96862    
    3139.0      0.96865    
    3140.0      0.96868    
    3141.0      0.96870    
    3142.0      0.96873    
    3143.0      0.96876    
    3144.0      0.96879    
    3145.0      0.96882    
    3146.0      0.96885    
    3147.0      0.96888    
    3148.0      0.96891    
    3149.0      0.96894    
    3150.0      0.96896    
    3151.0      0.96899    
    3152.0      0.96902    
    3153.0      0.96905    
    3154.0      0.96908    
    3155.0      0.96911    
    3156.0      0.96914    
    3157.0      0.96916    
    3158.0      0.96919    
    3159.0      0.96922    
    3160.0      0.96925    
    3161.0      0.96928    
    3162.0      0.96931    
    3163.0      0.96933    
    3164.0      0.96936    
    3165.0      0.96939    
    3166.0      0.96942    
    3167.0      0.96945    
    3168.0      0.96948    
    3169.0      0.96950    
    3170.0      0.96953    
    3171.0      0.96956    
    3172.0      0.96959    
    3173.0      0.96962    
    3174.0      0.96964    
    3175.0      0.96967    
    3176.0      0.96970    
    3177.0      0.96973    
    3178.0      0.96975    
    3179.0      0.96978    
    3180.0      0.96981    
    3181.0      0.96984    
    3182.0      0.96987    
    3183.0      0.96989    
    3184.0      0.96992    
    3185.0      0.96995    
    3186.0      0.96998    
    3187.0      0.97000    
    3188.0      0.97003    
    3189.0      0.97006    
    3190.0      0.97009    
    3191.0      0.97011    
    3192.0      0.97014    
    3193.0      0.97017    
    3194.0      0.97019    
    3195.0      0.97022    
    3196.0      0.97025    
    3197.0      0.97028    
    3198.0      0.97030    
    3199.0      0.97033    
    3200.0      0.97036    
    3201.0      0.97038    
    3202.0      0.97041    
    3203.0      0.97044    
    3204.0      0.97047    
    3205.0      0.97049    
    3206.0      0.97052    
    3207.0      0.97055    
    3208.0      0.97057    
    3209.0      0.97060    
    3210.0      0.97063    
    3211.0      0.97065    
    3212.0      0.97068    
    3213.0      0.97071    
    3214.0      0.97073    
    3215.0      0.97076    
    3216.0      0.97079    
    3217.0      0.97081    
    3218.0      0.97084    
    3219.0      0.97087    
    3220.0      0.97089    
    3221.0      0.97092    
    3222.0      0.97094    
    3223.0      0.97097    
    3224.0      0.97100    
    3225.0      0.97102    
    3226.0      0.97105    
    3227.0      0.97108    
    3228.0      0.97110    
    3229.0      0.97113    
    3230.0      0.97115    
    3231.0      0.97118    
    3232.0      0.97121    
    3233.0      0.97123    
    3234.0      0.97126    
    3235.0      0.97128    
    3236.0      0.97131    
    3237.0      0.97134    
    3238.0      0.97136    
    3239.0      0.97139    
    3240.0      0.97141    
    3241.0      0.97144    
    3242.0      0.97147    
    3243.0      0.97149    
    3244.0      0.97152    
    3245.0      0.97154    
    3246.0      0.97157    
    3247.0      0.97159    
    3248.0      0.97162    
    3249.0      0.97164    
    3250.0      0.97167    
    3251.0      0.97170    
    3252.0      0.97172    
    3253.0      0.97175    
    3254.0      0.97177    
    3255.0      0.97180    
    3256.0      0.97182    
    3257.0      0.97185    
    3258.0      0.97187    
    3259.0      0.97190    
    3260.0      0.97192    
    3261.0      0.97195    
    3262.0      0.97197    
    3263.0      0.97200    
    3264.0      0.97202    
    3265.0      0.97205    
    3266.0      0.97207    
    3267.0      0.97210    
    3268.0      0.97212    
    3269.0      0.97215    
    3270.0      0.97217    
    3271.0      0.97220    
    3272.0      0.97222    
    3273.0      0.97225    
    3274.0      0.97227    
    3275.0      0.97230    
    3276.0      0.97232    
    3277.0      0.97235    
    3278.0      0.97237    
    3279.0      0.97240    
    3280.0      0.97242    
    3281.0      0.97245    
    3282.0      0.97247    
    3283.0      0.97250    
    3284.0      0.97252    
    3285.0      0.97254    
    3286.0      0.97257    
    3287.0      0.97259    
    3288.0      0.97262    
    3289.0      0.97264    
    3290.0      0.97267    
    3291.0      0.97269    
    3292.0      0.97271    
    3293.0      0.97274    
    3294.0      0.97276    
    3295.0      0.97279    
    3296.0      0.97281    
    3297.0      0.97284    
    3298.0      0.97286    
    3299.0      0.97288    
    3300.0      0.97291    
    3301.0      0.97293    
    3302.0      0.97296    
    3303.0      0.97298    
    3304.0      0.97300    
    3305.0      0.97303    
    3306.0      0.97305    
    3307.0      0.97308    
    3308.0      0.97310    
    3309.0      0.97312    
    3310.0      0.97315    
    3311.0      0.97317    
    3312.0      0.97319    
    3313.0      0.97322    
    3314.0      0.97324    
    3315.0      0.97327    
    3316.0      0.97329    
    3317.0      0.97331    
    3318.0      0.97334    
    3319.0      0.97336    
    3320.0      0.97338    
    3321.0      0.97341    
    3322.0      0.97343    
    3323.0      0.97345    
    3324.0      0.97348    
    3325.0      0.97350    
    3326.0      0.97352    
    3327.0      0.97355    
    3328.0      0.97357    
    3329.0      0.97359    
    3330.0      0.97362    
    3331.0      0.97364    
    3332.0      0.97366    
    3333.0      0.97369    
    3334.0      0.97371    
    3335.0      0.97373    
    3336.0      0.97376    
    3337.0      0.97378    
    3338.0      0.97380    
    3339.0      0.97383    
    3340.0      0.97385    
    3341.0      0.97387    
    3342.0      0.97389    
    3343.0      0.97392    
    3344.0      0.97394    
    3345.0      0.97396    
    3346.0      0.97399    
    3347.0      0.97401    
    3348.0      0.97403    
    3349.0      0.97405    
    3350.0      0.97408    
    3351.0      0.97410    
    3352.0      0.97412    
    3353.0      0.97415    
    3354.0      0.97417    
    3355.0      0.97419    
    3356.0      0.97421    
    3357.0      0.97424    
    3358.0      0.97426    
    3359.0      0.97428    
    3360.0      0.97430    
    3361.0      0.97433    
    3362.0      0.97435    
    3363.0      0.97437    
    3364.0      0.97439    
    3365.0      0.97441    
    3366.0      0.97444    
    3367.0      0.97446    
    3368.0      0.97448    
    3369.0      0.97450    
    3370.0      0.97453    
    3371.0      0.97455    
    3372.0      0.97457    
    3373.0      0.97459    
    3374.0      0.97461    
    3375.0      0.97464    
    3376.0      0.97466    
    3377.0      0.97468    
    3378.0      0.97470    
    3379.0      0.97472    
    3380.0      0.97475    
    3381.0      0.97477    
    3382.0      0.97479    
    3383.0      0.97481    
    3384.0      0.97483    
    3385.0      0.97486    
    3386.0      0.97488    
    3387.0      0.97490    
    3388.0      0.97492    
    3389.0      0.97494    
    3390.0      0.97497    
    3391.0      0.97499    
    3392.0      0.97501    
    3393.0      0.97503    
    3394.0      0.97505    
    3395.0      0.97507    
    3396.0      0.97510    
    3397.0      0.97512    
    3398.0      0.97514    
    3399.0      0.97516    
    3400.0      0.97518    
    3401.0      0.97520    
    3402.0      0.97522    
    3403.0      0.97525    
    3404.0      0.97527    
    3405.0      0.97529    
    3406.0      0.97531    
    3407.0      0.97533    
    3408.0      0.97535    
    3409.0      0.97537    
    3410.0      0.97539    
    3411.0      0.97542    
    3412.0      0.97544    
    3413.0      0.97546    
    3414.0      0.97548    
    3415.0      0.97550    
    3416.0      0.97552    
    3417.0      0.97554    
    3418.0      0.97556    
    3419.0      0.97558    
    3420.0      0.97561    
    3421.0      0.97563    
    3422.0      0.97565    
    3423.0      0.97567    
    3424.0      0.97569    
    3425.0      0.97571    
    3426.0      0.97573    
    3427.0      0.97575    
    3428.0      0.97577    
    3429.0      0.97579    
    3430.0      0.97581    
    3431.0      0.97584    
    3432.0      0.97586    
    3433.0      0.97588    
    3434.0      0.97590    
    3435.0      0.97592    
    3436.0      0.97594    
    3437.0      0.97596    
    3438.0      0.97598    
    3439.0      0.97600    
    3440.0      0.97602    
    3441.0      0.97604    
    3442.0      0.97606    
    3443.0      0.97608    
    3444.0      0.97610    
    3445.0      0.97612    
    3446.0      0.97614    
    3447.0      0.97616    
    3448.0      0.97618    
    3449.0      0.97620    
    3450.0      0.97623    
    3451.0      0.97625    
    3452.0      0.97627    
    3453.0      0.97629    
    3454.0      0.97631    
    3455.0      0.97633    
    3456.0      0.97635    
    3457.0      0.97637    
    3458.0      0.97639    
    3459.0      0.97641    
    3460.0      0.97643    
    3461.0      0.97645    
    3462.0      0.97647    
    3463.0      0.97649    
    3464.0      0.97651    
    3465.0      0.97653    
    3466.0      0.97655    
    3467.0      0.97657    
    3468.0      0.97659    
    3469.0      0.97661    
    3470.0      0.97663    
    3471.0      0.97665    
    3472.0      0.97667    
    3473.0      0.97669    
    3474.0      0.97671    
    3475.0      0.97673    
    3476.0      0.97675    
    3477.0      0.97677    
    3478.0      0.97679    
    3479.0      0.97680    
    3480.0      0.97682    
    3481.0      0.97684    
    3482.0      0.97686    
    3483.0      0.97688    
    3484.0      0.97690    
    3485.0      0.97692    
    3486.0      0.97694    
    3487.0      0.97696    
    3488.0      0.97698    
    3489.0      0.97700    
    3490.0      0.97702    
    3491.0      0.97704    
    3492.0      0.97706    
    3493.0      0.97708    
    3494.0      0.97710    
    3495.0      0.97712    
    3496.0      0.97714    
    3497.0      0.97716    
    3498.0      0.97717    
    3499.0      0.97719    
    3500.0      0.97721    
    3501.0      0.97723    
    3502.0      0.97725    
    3503.0      0.97727    
    3504.0      0.97729    
    3505.0      0.97731    
    3506.0      0.97733    
    3507.0      0.97735    
    3508.0      0.97737    
    3509.0      0.97739    
    3510.0      0.97740    
    3511.0      0.97742    
    3512.0      0.97744    
    3513.0      0.97746    
    3514.0      0.97748    
    3515.0      0.97750    
    3516.0      0.97752    
    3517.0      0.97754    
    3518.0      0.97756    
    3519.0      0.97757    
    3520.0      0.97759    
    3521.0      0.97761    
    3522.0      0.97763    
    3523.0      0.97765    
    3524.0      0.97767    
    3525.0      0.97769    
    3526.0      0.97771    
    3527.0      0.97772    
    3528.0      0.97774    
    3529.0      0.97776    
    3530.0      0.97778    
    3531.0      0.97780    
    3532.0      0.97782    
    3533.0      0.97784    
    3534.0      0.97786    
    3535.0      0.97787    
    3536.0      0.97789    
    3537.0      0.97791    
    3538.0      0.97793    
    3539.0      0.97795    
    3540.0      0.97797    
    3541.0      0.97798    
    3542.0      0.97800    
    3543.0      0.97802    
    3544.0      0.97804    
    3545.0      0.97806    
    3546.0      0.97808    
    3547.0      0.97809    
    3548.0      0.97811    
    3549.0      0.97813    
    3550.0      0.97815    
    3551.0      0.97817    
    3552.0      0.97819    
    3553.0      0.97820    
    3554.0      0.97822    
    3555.0      0.97824    
    3556.0      0.97826    
    3557.0      0.97828    
    3558.0      0.97829    
    3559.0      0.97831    
    3560.0      0.97833    
    3561.0      0.97835    
    3562.0      0.97837    
    3563.0      0.97838    
    3564.0      0.97840    
    3565.0      0.97842    
    3566.0      0.97844    
    3567.0      0.97846    
    3568.0      0.97847    
    3569.0      0.97849    
    3570.0      0.97851    
    3571.0      0.97853    
    3572.0      0.97854    
    3573.0      0.97856    
    3574.0      0.97858    
    3575.0      0.97860    
    3576.0      0.97862    
    3577.0      0.97863    
    3578.0      0.97865    
    3579.0      0.97867    
    3580.0      0.97869    
    3581.0      0.97870    
    3582.0      0.97872    
    3583.0      0.97874    
    3584.0      0.97876    
    3585.0      0.97877    
    3586.0      0.97879    
    3587.0      0.97881    
    3588.0      0.97883    
    3589.0      0.97884    
    3590.0      0.97886    
    3591.0      0.97888    
    3592.0      0.97890    
    3593.0      0.97891    
    3594.0      0.97893    
    3595.0      0.97895    
    3596.0      0.97897    
    3597.0      0.97898    
    3598.0      0.97900    
    3599.0      0.97902    
    3600.0      0.97904    
    3601.0      0.97905    
    3602.0      0.97907    
    3603.0      0.97909    
    3604.0      0.97910    
    3605.0      0.97912    
    3606.0      0.97914    
    3607.0      0.97916    
    3608.0      0.97917    
    3609.0      0.97919    
    3610.0      0.97921    
    3611.0      0.97922    
    3612.0      0.97924    
    3613.0      0.97926    
    3614.0      0.97928    
    3615.0      0.97929    
    3616.0      0.97931    
    3617.0      0.97933    
    3618.0      0.97934    
    3619.0      0.97936    
    3620.0      0.97938    
    3621.0      0.97939    
    3622.0      0.97941    
    3623.0      0.97943    
    3624.0      0.97944    
    3625.0      0.97946    
    3626.0      0.97948    
    3627.0      0.97950    
    3628.0      0.97951    
    3629.0      0.97953    
    3630.0      0.97955    
    3631.0      0.97956    
    3632.0      0.97958    
    3633.0      0.97960    
    3634.0      0.97961    
    3635.0      0.97963    
    3636.0      0.97965    
    3637.0      0.97966    
    3638.0      0.97968    
    3639.0      0.97970    
    3640.0      0.97971    
    3641.0      0.97973    
    3642.0      0.97975    
    3643.0      0.97976    
    3644.0      0.97978    
    3645.0      0.97979    
    3646.0      0.97981    
    3647.0      0.97983    
    3648.0      0.97984    
    3649.0      0.97986    
    3650.0      0.97988    
    3651.0      0.97989    
    3652.0      0.97991    
    3653.0      0.97993    
    3654.0      0.97994    
    3655.0      0.97996    
    3656.0      0.97997    
    3657.0      0.97999    
    3658.0      0.98001    
    3659.0      0.98002    
    3660.0      0.98004    
    3661.0      0.98006    
    3662.0      0.98007    
    3663.0      0.98009    
    3664.0      0.98010    
    3665.0      0.98012    
    3666.0      0.98014    
    3667.0      0.98015    
    3668.0      0.98017    
    3669.0      0.98018    
    3670.0      0.98020    
    3671.0      0.98022    
    3672.0      0.98023    
    3673.0      0.98025    
    3674.0      0.98026    
    3675.0      0.98028    
    3676.0      0.98030    
    3677.0      0.98031    
    3678.0      0.98033    
    3679.0      0.98034    
    3680.0      0.98036    
    3681.0      0.98038    
    3682.0      0.98039    
    3683.0      0.98041    
    3684.0      0.98042    
    3685.0      0.98044    
    3686.0      0.98046    
    3687.0      0.98047    
    3688.0      0.98049    
    3689.0      0.98050    
    3690.0      0.98052    
    3691.0      0.98053    
    3692.0      0.98055    
    3693.0      0.98057    
    3694.0      0.98058    
    3695.0      0.98060    
    3696.0      0.98061    
    3697.0      0.98063    
    3698.0      0.98064    
    3699.0      0.98066    
    3700.0      0.98067    
    3701.0      0.98069    
    3702.0      0.98071    
    3703.0      0.98072    
    3704.0      0.98074    
    3705.0      0.98075    
    3706.0      0.98077    
    3707.0      0.98078    
    3708.0      0.98080    
    3709.0      0.98081    
    3710.0      0.98083    
    3711.0      0.98084    
    3712.0      0.98086    
    3713.0      0.98088    
    3714.0      0.98089    
    3715.0      0.98091    
    3716.0      0.98092    
    3717.0      0.98094    
    3718.0      0.98095    
    3719.0      0.98097    
    3720.0      0.98098    
    3721.0      0.98100    
    3722.0      0.98101    
    3723.0      0.98103    
    3724.0      0.98104    
    3725.0      0.98106    
    3726.0      0.98107    
    3727.0      0.98109    
    3728.0      0.98110    
    3729.0      0.98112    
    3730.0      0.98113    
    3731.0      0.98115    
    3732.0      0.98116    
    3733.0      0.98118    
    3734.0      0.98119    
    3735.0      0.98121    
    3736.0      0.98122    
    3737.0      0.98124    
    3738.0      0.98125    
    3739.0      0.98127    
    3740.0      0.98128    
    3741.0      0.98130    
    3742.0      0.98131    
    3743.0      0.98133    
    3744.0      0.98134    
    3745.0      0.98136    
    3746.0      0.98137    
    3747.0      0.98139    
    3748.0      0.98140    
    3749.0      0.98142    
    3750.0      0.98143    
    3751.0      0.98145    
    3752.0      0.98146    
    3753.0      0.98148    
    3754.0      0.98149    
    3755.0      0.98151    
    3756.0      0.98152    
    3757.0      0.98153    
    3758.0      0.98155    
    3759.0      0.98156    
    3760.0      0.98158    
    3761.0      0.98159    
    3762.0      0.98161    
    3763.0      0.98162    
    3764.0      0.98164    
    3765.0      0.98165    
    3766.0      0.98167    
    3767.0      0.98168    
    3768.0      0.98169    
    3769.0      0.98171    
    3770.0      0.98172    
    3771.0      0.98174    
    3772.0      0.98175    
    3773.0      0.98177    
    3774.0      0.98178    
    3775.0      0.98180    
    3776.0      0.98181    
    3777.0      0.98182    
    3778.0      0.98184    
    3779.0      0.98185    
    3780.0      0.98187    
    3781.0      0.98188    
    3782.0      0.98190    
    3783.0      0.98191    
    3784.0      0.98192    
    3785.0      0.98194    
    3786.0      0.98195    
    3787.0      0.98197    
    3788.0      0.98198    
    3789.0      0.98200    
    3790.0      0.98201    
    3791.0      0.98202    
    3792.0      0.98204    
    3793.0      0.98205    
    3794.0      0.98207    
    3795.0      0.98208    
    3796.0      0.98209    
    3797.0      0.98211    
    3798.0      0.98212    
    3799.0      0.98214    
    3800.0      0.98215    
    3801.0      0.98217    
    3802.0      0.98218    
    3803.0      0.98219    
    3804.0      0.98221    
    3805.0      0.98222    
    3806.0      0.98224    
    3807.0      0.98225    
    3808.0      0.98226    
    3809.0      0.98228    
    3810.0      0.98229    
    3811.0      0.98230    
    3812.0      0.98232    
    3813.0      0.98233    
    3814.0      0.98235    
    3815.0      0.98236    
    3816.0      0.98237    
    3817.0      0.98239    
    3818.0      0.98240    
    3819.0      0.98242    
    3820.0      0.98243    
    3821.0      0.98244    
    3822.0      0.98246    
    3823.0      0.98247    
    3824.0      0.98248    
    3825.0      0.98250    
    3826.0      0.98251    
    3827.0      0.98253    
    3828.0      0.98254    
    3829.0      0.98255    
    3830.0      0.98257    
    3831.0      0.98258    
    3832.0      0.98259    
    3833.0      0.98261    
    3834.0      0.98262    
    3835.0      0.98263    
    3836.0      0.98265    
    3837.0      0.98266    
    3838.0      0.98267    
    3839.0      0.98269    
    3840.0      0.98270    
    3841.0      0.98271    
    3842.0      0.98273    
    3843.0      0.98274    
    3844.0      0.98276    
    3845.0      0.98277    
    3846.0      0.98278    
    3847.0      0.98280    
    3848.0      0.98281    
    3849.0      0.98282    
    3850.0      0.98284    
    3851.0      0.98285    
    3852.0      0.98286    
    3853.0      0.98288    
    3854.0      0.98289    
    3855.0      0.98290    
    3856.0      0.98292    
    3857.0      0.98293    
    3858.0      0.98294    
    3859.0      0.98295    
    3860.0      0.98297    
    3861.0      0.98298    
    3862.0      0.98299    
    3863.0      0.98301    
    3864.0      0.98302    
    3865.0      0.98303    
    3866.0      0.98305    
    3867.0      0.98306    
    3868.0      0.98307    
    3869.0      0.98309    
    3870.0      0.98310    
    3871.0      0.98311    
    3872.0      0.98313    
    3873.0      0.98314    
    3874.0      0.98315    
    3875.0      0.98316    
    3876.0      0.98318    
    3877.0      0.98319    
    3878.0      0.98320    
    3879.0      0.98322    
    3880.0      0.98323    
    3881.0      0.98324    
    3882.0      0.98326    
    3883.0      0.98327    
    3884.0      0.98328    
    3885.0      0.98329    
    3886.0      0.98331    
    3887.0      0.98332    
    3888.0      0.98333    
    3889.0      0.98335    
    3890.0      0.98336    
    3891.0      0.98337    
    3892.0      0.98338    
    3893.0      0.98340    
    3894.0      0.98341    
    3895.0      0.98342    
    3896.0      0.98344    
    3897.0      0.98345    
    3898.0      0.98346    
    3899.0      0.98347    
    3900.0      0.98349    
    3901.0      0.98350    
    3902.0      0.98351    
    3903.0      0.98352    
    3904.0      0.98354    
    3905.0      0.98355    
    3906.0      0.98356    
    3907.0      0.98357    
    3908.0      0.98359    
    3909.0      0.98360    
    3910.0      0.98361    
    3911.0      0.98362    
    3912.0      0.98364    
    3913.0      0.98365    
    3914.0      0.98366    
    3915.0      0.98367    
    3916.0      0.98369    
    3917.0      0.98370    
    3918.0      0.98371    
    3919.0      0.98372    
    3920.0      0.98374    
    3921.0      0.98375    
    3922.0      0.98376    
    3923.0      0.98377    
    3924.0      0.98379    
    3925.0      0.98380    
    3926.0      0.98381    
    3927.0      0.98382    
    3928.0      0.98384    
    3929.0      0.98385    
    3930.0      0.98386    
    3931.0      0.98387    
    3932.0      0.98389    
    3933.0      0.98390    
    3934.0      0.98391    
    3935.0      0.98392    
    3936.0      0.98393    
    3937.0      0.98395    
    3938.0      0.98396    
    3939.0      0.98397    
    3940.0      0.98398    
    3941.0      0.98400    
    3942.0      0.98401    
    3943.0      0.98402    
    3944.0      0.98403    
    3945.0      0.98404    
    3946.0      0.98406    
    3947.0      0.98407    
    3948.0      0.98408    
    3949.0      0.98409    
    3950.0      0.98411    
    3951.0      0.98412    
    3952.0      0.98413    
    3953.0      0.98414    
    3954.0      0.98415    
    3955.0      0.98417    
    3956.0      0.98418    
    3957.0      0.98419    
    3958.0      0.98420    
    3959.0      0.98421    
    3960.0      0.98423    
    3961.0      0.98424    
    3962.0      0.98425    
    3963.0      0.98426    
    3964.0      0.98427    
    3965.0      0.98429    
    3966.0      0.98430    
    3967.0      0.98431    
    3968.0      0.98432    
    3969.0      0.98433    
    3970.0      0.98434    
    3971.0      0.98436    
    3972.0      0.98437    
    3973.0      0.98438    
    3974.0      0.98439    
    3975.0      0.98440    
    3976.0      0.98442    
    3977.0      0.98443    
    3978.0      0.98444    
    3979.0      0.98445    
    3980.0      0.98446    
    3981.0      0.98447    
    3982.0      0.98449    
    3983.0      0.98450    
    3984.0      0.98451    
    3985.0      0.98452    
    3986.0      0.98453    
    3987.0      0.98454    
    3988.0      0.98456    
    3989.0      0.98457    
    3990.0      0.98458    
    3991.0      0.98459    
    3992.0      0.98460    
    3993.0      0.98461    
    3994.0      0.98463    
    3995.0      0.98464    
    3996.0      0.98465    
    3997.0      0.98466    
    3998.0      0.98467    
    3999.0      0.98468    
    4000.0      0.98469    
    4001.0      0.98471    
    4002.0      0.98472    
    4003.0      0.98473    
    4004.0      0.98474    
    4005.0      0.98475    
    4006.0      0.98476    
    4007.0      0.98477    
    4008.0      0.98479    
    4009.0      0.98480    
    4010.0      0.98481    
    4011.0      0.98482    
    4012.0      0.98483    
    4013.0      0.98484    
    4014.0      0.98485    
    4015.0      0.98487    
    4016.0      0.98488    
    4017.0      0.98489    
    4018.0      0.98490    
    4019.0      0.98491    
    4020.0      0.98492    
    4021.0      0.98493    
    4022.0      0.98494    
    4023.0      0.98496    
    4024.0      0.98497    
    4025.0      0.98498    
    4026.0      0.98499    
    4027.0      0.98500    
    4028.0      0.98501    
    4029.0      0.98502    
    4030.0      0.98503    
    4031.0      0.98505    
    4032.0      0.98506    
    4033.0      0.98507    
    4034.0      0.98508    
    4035.0      0.98509    
    4036.0      0.98510    
    4037.0      0.98511    
    4038.0      0.98512    
    4039.0      0.98513    
    4040.0      0.98515    
    4041.0      0.98516    
    4042.0      0.98517    
    4043.0      0.98518    
    4044.0      0.98519    
    4045.0      0.98520    
    4046.0      0.98521    
    4047.0      0.98522    
    4048.0      0.98523    
    4049.0      0.98524    
    4050.0      0.98526    
    4051.0      0.98527    
    4052.0      0.98528    
    4053.0      0.98529    
    4054.0      0.98530    
    4055.0      0.98531    
    4056.0      0.98532    
    4057.0      0.98533    
    4058.0      0.98534    
    4059.0      0.98535    
    4060.0      0.98536    
    4061.0      0.98538    
    4062.0      0.98539    
    4063.0      0.98540    
    4064.0      0.98541    
    4065.0      0.98542    
    4066.0      0.98543    
    4067.0      0.98544    
    4068.0      0.98545    
    4069.0      0.98546    
    4070.0      0.98547    
    4071.0      0.98548    
    4072.0      0.98549    
    4073.0      0.98550    
    4074.0      0.98552    
    4075.0      0.98553    
    4076.0      0.98554    
    4077.0      0.98555    
    4078.0      0.98556    
    4079.0      0.98557    
    4080.0      0.98558    
    4081.0      0.98559    
    4082.0      0.98560    
    4083.0      0.98561    
    4084.0      0.98562    
    4085.0      0.98563    
    4086.0      0.98564    
    4087.0      0.98565    
    4088.0      0.98566    
    4089.0      0.98568    
    4090.0      0.98569    
    4091.0      0.98570    
    4092.0      0.98571    
    4093.0      0.98572    
    4094.0      0.98573    
    4095.0      0.98574    
    4096.0      0.98575    
    4097.0      0.98576    
    4098.0      0.98577    
    4099.0      0.98578    
    4100.0      0.98579    
    4101.0      0.98580    
    4102.0      0.98581    
    4103.0      0.98582    
    4104.0      0.98583    
    4105.0      0.98584    
    4106.0      0.98585    
    4107.0      0.98586    
    4108.0      0.98587    
    4109.0      0.98588    
    4110.0      0.98589    
    4111.0      0.98590    
    4112.0      0.98592    
    4113.0      0.98593    
    4114.0      0.98594    
    4115.0      0.98595    
    4116.0      0.98596    
    4117.0      0.98597    
    4118.0      0.98598    
    4119.0      0.98599    
    4120.0      0.98600    
    4121.0      0.98601    
    4122.0      0.98602    
    4123.0      0.98603    
    4124.0      0.98604    
    4125.0      0.98605    
    4126.0      0.98606    
    4127.0      0.98607    
    4128.0      0.98608    
    4129.0      0.98609    
    4130.0      0.98610    
    4131.0      0.98611    
    4132.0      0.98612    
    4133.0      0.98613    
    4134.0      0.98614    
    4135.0      0.98615    
    4136.0      0.98616    
    4137.0      0.98617    
    4138.0      0.98618    
    4139.0      0.98619    
    4140.0      0.98620    
    4141.0      0.98621    
    4142.0      0.98622    
    4143.0      0.98623    
    4144.0      0.98624    
    4145.0      0.98625    
    4146.0      0.98626    
    4147.0      0.98627    
    4148.0      0.98628    
    4149.0      0.98629    
    4150.0      0.98630    
    4151.0      0.98631    
    4152.0      0.98632    
    4153.0      0.98633    
    4154.0      0.98634    
    4155.0      0.98635    
    4156.0      0.98636    
    4157.0      0.98637    
    4158.0      0.98638    
    4159.0      0.98639    
    4160.0      0.98640    
    4161.0      0.98641    
    4162.0      0.98642    
    4163.0      0.98643    
    4164.0      0.98644    
    4165.0      0.98645    
    4166.0      0.98646    
    4167.0      0.98647    
    4168.0      0.98648    
    4169.0      0.98649    
    4170.0      0.98650    
    4171.0      0.98651    
    4172.0      0.98652    
    4173.0      0.98653    
    4174.0      0.98654    
    4175.0      0.98655    
    4176.0      0.98656    
    4177.0      0.98657    
    4178.0      0.98658    
    4179.0      0.98659    
    4180.0      0.98660    
    4181.0      0.98661    
    4182.0      0.98661    
    4183.0      0.98662    
    4184.0      0.98663    
    4185.0      0.98664    
    4186.0      0.98665    
    4187.0      0.98666    
    4188.0      0.98667    
    4189.0      0.98668    
    4190.0      0.98669    
    4191.0      0.98670    
    4192.0      0.98671    
    4193.0      0.98672    
    4194.0      0.98673    
    4195.0      0.98674    
    4196.0      0.98675    
    4197.0      0.98676    
    4198.0      0.98677    
    4199.0      0.98678    
    4200.0      0.98679    
    4201.0      0.98680    
    4202.0      0.98681    
    4203.0      0.98682    
    4204.0      0.98683    
    4205.0      0.98683    
    4206.0      0.98684    
    4207.0      0.98685    
    4208.0      0.98686    
    4209.0      0.98687    
    4210.0      0.98688    
    4211.0      0.98689    
    4212.0      0.98690    
    4213.0      0.98691    
    4214.0      0.98692    
    4215.0      0.98693    
    4216.0      0.98694    
    4217.0      0.98695    
    4218.0      0.98696    
    4219.0      0.98697    
    4220.0      0.98698    
    4221.0      0.98698    
    4222.0      0.98699    
    4223.0      0.98700    
    4224.0      0.98701    
    4225.0      0.98702    
    4226.0      0.98703    
    4227.0      0.98704    
    4228.0      0.98705    
    4229.0      0.98706    
    4230.0      0.98707    
    4231.0      0.98708    
    4232.0      0.98709    
    4233.0      0.98710    
    4234.0      0.98711    
    4235.0      0.98711    
    4236.0      0.98712    
    4237.0      0.98713    
    4238.0      0.98714    
    4239.0      0.98715    
    4240.0      0.98716    
    4241.0      0.98717    
    4242.0      0.98718    
    4243.0      0.98719    
    4244.0      0.98720    
    4245.0      0.98721    
    4246.0      0.98722    
    4247.0      0.98722    
    4248.0      0.98723    
    4249.0      0.98724    
    4250.0      0.98725    
    4251.0      0.98726    
    4252.0      0.98727    
    4253.0      0.98728    
    4254.0      0.98729    
    4255.0      0.98730    
    4256.0      0.98731    
    4257.0      0.98731    
    4258.0      0.98732    
    4259.0      0.98733    
    4260.0      0.98734    
    4261.0      0.98735    
    4262.0      0.98736    
    4263.0      0.98737    
    4264.0      0.98738    
    4265.0      0.98739    
    4266.0      0.98740    
    4267.0      0.98740    
    4268.0      0.98741    
    4269.0      0.98742    
    4270.0      0.98743    
    4271.0      0.98744    
    4272.0      0.98745    
    4273.0      0.98746    
    4274.0      0.98747    
    4275.0      0.98748    
    4276.0      0.98748    
    4277.0      0.98749    
    4278.0      0.98750    
    4279.0      0.98751    
    4280.0      0.98752    
    4281.0      0.98753    
    4282.0      0.98754    
    4283.0      0.98755    
    4284.0      0.98755    
    4285.0      0.98756    
    4286.0      0.98757    
    4287.0      0.98758    
    4288.0      0.98759    
    4289.0      0.98760    
    4290.0      0.98761    
    4291.0      0.98762    
    4292.0      0.98762    
    4293.0      0.98763    
    4294.0      0.98764    
    4295.0      0.98765    
    4296.0      0.98766    
    4297.0      0.98767    
    4298.0      0.98768    
    4299.0      0.98769    
    4300.0      0.98769    
    4301.0      0.98770    
    4302.0      0.98771    
    4303.0      0.98772    
    4304.0      0.98773    
    4305.0      0.98774    
    4306.0      0.98775    
    4307.0      0.98775    
    4308.0      0.98776    
    4309.0      0.98777    
    4310.0      0.98778    
    4311.0      0.98779    
    4312.0      0.98780    
    4313.0      0.98781    
    4314.0      0.98781    
    4315.0      0.98782    
    4316.0      0.98783    
    4317.0      0.98784    
    4318.0      0.98785    
    4319.0      0.98786    
    4320.0      0.98787    
    4321.0      0.98787    
    4322.0      0.98788    
    4323.0      0.98789    
    4324.0      0.98790    
    4325.0      0.98791    
    4326.0      0.98792    
    4327.0      0.98793    
    4328.0      0.98793    
    4329.0      0.98794    
    4330.0      0.98795    
    4331.0      0.98796    
    4332.0      0.98797    
    4333.0      0.98798    
    4334.0      0.98798    
    4335.0      0.98799    
    4336.0      0.98800    
    4337.0      0.98801    
    4338.0      0.98802    
    4339.0      0.98803    
    4340.0      0.98803    
    4341.0      0.98804    
    4342.0      0.98805    
    4343.0      0.98806    
    4344.0      0.98807    
    4345.0      0.98808    
    4346.0      0.98808    
    4347.0      0.98809    
    4348.0      0.98810    
    4349.0      0.98811    
    4350.0      0.98812    
    4351.0      0.98813    
    4352.0      0.98813    
    4353.0      0.98814    
    4354.0      0.98815    
    4355.0      0.98816    
    4356.0      0.98817    
    4357.0      0.98818    
    4358.0      0.98818    
    4359.0      0.98819    
    4360.0      0.98820    
    4361.0      0.98821    
    4362.0      0.98822    
    4363.0      0.98822    
    4364.0      0.98823    
    4365.0      0.98824    
    4366.0      0.98825    
    4367.0      0.98826    
    4368.0      0.98827    
    4369.0      0.98827    
    4370.0      0.98828    
    4371.0      0.98829    
    4372.0      0.98830    
    4373.0      0.98831    
    4374.0      0.98831    
    4375.0      0.98832    
    4376.0      0.98833    
    4377.0      0.98834    
    4378.0      0.98835    
    4379.0      0.98835    
    4380.0      0.98836    
    4381.0      0.98837    
    4382.0      0.98838    
    4383.0      0.98839    
    4384.0      0.98839    
    4385.0      0.98840    
    4386.0      0.98841    
    4387.0      0.98842    
    4388.0      0.98843    
    4389.0      0.98843    
    4390.0      0.98844    
    4391.0      0.98845    
    4392.0      0.98846    
    4393.0      0.98847    
    4394.0      0.98847    
    4395.0      0.98848    
    4396.0      0.98849    
    4397.0      0.98850    
    4398.0      0.98851    
    4399.0      0.98851    
    4400.0      0.98852    
    4401.0      0.98853    
    4402.0      0.98854    
    4403.0      0.98855    
    4404.0      0.98855    
    4405.0      0.98856    
    4406.0      0.98857    
    4407.0      0.98858    
    4408.0      0.98858    
    4409.0      0.98859    
    4410.0      0.98860    
    4411.0      0.98861    
    4412.0      0.98862    
    4413.0      0.98862    
    4414.0      0.98863    
    4415.0      0.98864    
    4416.0      0.98865    
    4417.0      0.98866    
    4418.0      0.98866    
    4419.0      0.98867    
    4420.0      0.98868    
    4421.0      0.98869    
    4422.0      0.98869    
    4423.0      0.98870    
    4424.0      0.98871    
    4425.0      0.98872    
    4426.0      0.98872    
    4427.0      0.98873    
    4428.0      0.98874    
    4429.0      0.98875    
    4430.0      0.98876    
    4431.0      0.98876    
    4432.0      0.98877    
    4433.0      0.98878    
    4434.0      0.98879    
    4435.0      0.98879    
    4436.0      0.98880    
    4437.0      0.98881    
    4438.0      0.98882    
    4439.0      0.98882    
    4440.0      0.98883    
    4441.0      0.98884    
    4442.0      0.98885    
    4443.0      0.98886    
    4444.0      0.98886    
    4445.0      0.98887    
    4446.0      0.98888    
    4447.0      0.98889    
    4448.0      0.98889    
    4449.0      0.98890    
    4450.0      0.98891    
    4451.0      0.98892    
    4452.0      0.98892    
    4453.0      0.98893    
    4454.0      0.98894    
    4455.0      0.98895    
    4456.0      0.98895    
    4457.0      0.98896    
    4458.0      0.98897    
    4459.0      0.98898    
    4460.0      0.98898    
    4461.0      0.98899    
    4462.0      0.98900    
    4463.0      0.98901    
    4464.0      0.98901    
    4465.0      0.98902    
    4466.0      0.98903    
    4467.0      0.98904    
    4468.0      0.98904    
    4469.0      0.98905    
    4470.0      0.98906    
    4471.0      0.98907    
    4472.0      0.98907    
    4473.0      0.98908    
    4474.0      0.98909    
    4475.0      0.98909    
    4476.0      0.98910    
    4477.0      0.98911    
    4478.0      0.98912    
    4479.0      0.98912    
    4480.0      0.98913    
    4481.0      0.98914    
    4482.0      0.98915    
    4483.0      0.98915    
    4484.0      0.98916    
    4485.0      0.98917    
    4486.0      0.98918    
    4487.0      0.98918    
    4488.0      0.98919    
    4489.0      0.98920    
    4490.0      0.98921    
    4491.0      0.98921    
    4492.0      0.98922    
    4493.0      0.98923    
    4494.0      0.98923    
    4495.0      0.98924    
    4496.0      0.98925    
    4497.0      0.98926    
    4498.0      0.98926    
    4499.0      0.98927    
    4500.0      0.98928    
    4501.0      0.98928    
    4502.0      0.98929    
    4503.0      0.98930    
    4504.0      0.98931    
    4505.0      0.98931    
    4506.0      0.98932    
    4507.0      0.98933    
    4508.0      0.98934    
    4509.0      0.98934    
    4510.0      0.98935    
    4511.0      0.98936    
    4512.0      0.98936    
    4513.0      0.98937    
    4514.0      0.98938    
    4515.0      0.98939    
    4516.0      0.98939    
    4517.0      0.98940    
    4518.0      0.98941    
    4519.0      0.98941    
    4520.0      0.98942    
    4521.0      0.98943    
    4522.0      0.98944    
    4523.0      0.98944    
    4524.0      0.98945    
    4525.0      0.98946    
    4526.0      0.98946    
    4527.0      0.98947    
    4528.0      0.98948    
    4529.0      0.98948    
    4530.0      0.98949    
    4531.0      0.98950    
    4532.0      0.98951    
    4533.0      0.98951    
    4534.0      0.98952    
    4535.0      0.98953    
    4536.0      0.98953    
    4537.0      0.98954    
    4538.0      0.98955    
    4539.0      0.98955    
    4540.0      0.98956    
    4541.0      0.98957    
    4542.0      0.98958    
    4543.0      0.98958    
    4544.0      0.98959    
    4545.0      0.98960    
    4546.0      0.98960    
    4547.0      0.98961    
    4548.0      0.98962    
    4549.0      0.98962    
    4550.0      0.98963    
    4551.0      0.98964    
    4552.0      0.98965    
    4553.0      0.98965    
    4554.0      0.98966    
    4555.0      0.98967    
    4556.0      0.98967    
    4557.0      0.98968    
    4558.0      0.98969    
    4559.0      0.98969    
    4560.0      0.98970    
    4561.0      0.98971    
    4562.0      0.98971    
    4563.0      0.98972    
    4564.0      0.98973    
    4565.0      0.98973    
    4566.0      0.98974    
    4567.0      0.98975    
    4568.0      0.98975    
    4569.0      0.98976    
    4570.0      0.98977    
    4571.0      0.98978    
    4572.0      0.98978    
    4573.0      0.98979    
    4574.0      0.98980    
    4575.0      0.98980    
    4576.0      0.98981    
    4577.0      0.98982    
    4578.0      0.98982    
    4579.0      0.98983    
    4580.0      0.98984    
    4581.0      0.98984    
    4582.0      0.98985    
    4583.0      0.98986    
    4584.0      0.98986    
    4585.0      0.98987    
    4586.0      0.98988    
    4587.0      0.98988    
    4588.0      0.98989    
    4589.0      0.98990    
    4590.0      0.98990    
    4591.0      0.98991    
    4592.0      0.98992    
    4593.0      0.98992    
    4594.0      0.98993    
    4595.0      0.98994    
    4596.0      0.98994    
    4597.0      0.98995    
    4598.0      0.98996    
    4599.0      0.98996    
    4600.0      0.98997    
    4601.0      0.98998    
    4602.0      0.98998    
    4603.0      0.98999    
    4604.0      0.99000    
    4605.0      0.99000    
    4606.0      0.99001    
    4607.0      0.99002    
    4608.0      0.99002    
    4609.0      0.99003    
    4610.0      0.99004    
    4611.0      0.99004    
    4612.0      0.99005    
    4613.0      0.99006    
    4614.0      0.99006    
    4615.0      0.99007    
    4616.0      0.99008    
    4617.0      0.99008    
    4618.0      0.99009    
    4619.0      0.99009    
    4620.0      0.99010    
    4621.0      0.99011    
    4622.0      0.99011    
    4623.0      0.99012    
    4624.0      0.99013    
    4625.0      0.99013    
    4626.0      0.99014    
    4627.0      0.99015    
    4628.0      0.99015    
    4629.0      0.99016    
    4630.0      0.99017    
    4631.0      0.99017    
    4632.0      0.99018    
    4633.0      0.99019    
    4634.0      0.99019    
    4635.0      0.99020    
    4636.0      0.99020    
    4637.0      0.99021    
    4638.0      0.99022    
    4639.0      0.99022    
    4640.0      0.99023    
    4641.0      0.99024    
    4642.0      0.99024    
    4643.0      0.99025    
    4644.0      0.99026    
    4645.0      0.99026    
    4646.0      0.99027    
    4647.0      0.99028    
    4648.0      0.99028    
    4649.0      0.99029    
    4650.0      0.99029    
    4651.0      0.99030    
    4652.0      0.99031    
    4653.0      0.99031    
    4654.0      0.99032    
    4655.0      0.99033    
    4656.0      0.99033    
    4657.0      0.99034    
    4658.0      0.99034    
    4659.0      0.99035    
    4660.0      0.99036    
    4661.0      0.99036    
    4662.0      0.99037    
    4663.0      0.99038    
    4664.0      0.99038    
    4665.0      0.99039    
    4666.0      0.99039    
    4667.0      0.99040    
    4668.0      0.99041    
    4669.0      0.99041    
    4670.0      0.99042    
    4671.0      0.99043    
    4672.0      0.99043    
    4673.0      0.99044    
    4674.0      0.99044    
    4675.0      0.99045    
    4676.0      0.99046    
    4677.0      0.99046    
    4678.0      0.99047    
    4679.0      0.99048    
    4680.0      0.99048    
    4681.0      0.99049    
    4682.0      0.99049    
    4683.0      0.99050    
    4684.0      0.99051    
    4685.0      0.99051    
    4686.0      0.99052    
    4687.0      0.99053    
    4688.0      0.99053    
    4689.0      0.99054    
    4690.0      0.99054    
    4691.0      0.99055    
    4692.0      0.99056    
    4693.0      0.99056    
    4694.0      0.99057    
    4695.0      0.99057    
    4696.0      0.99058    
    4697.0      0.99059    
    4698.0      0.99059    
    4699.0      0.99060    
    4700.0      0.99060    
    4701.0      0.99061    
    4702.0      0.99062    
    4703.0      0.99062    
    4704.0      0.99063    
    4705.0      0.99064    
    4706.0      0.99064    
    4707.0      0.99065    
    4708.0      0.99065    
    4709.0      0.99066    
    4710.0      0.99067    
    4711.0      0.99067    
    4712.0      0.99068    
    4713.0      0.99068    
    4714.0      0.99069    
    4715.0      0.99070    
    4716.0      0.99070    
    4717.0      0.99071    
    4718.0      0.99071    
    4719.0      0.99072    
    4720.0      0.99073    
    4721.0      0.99073    
    4722.0      0.99074    
    4723.0      0.99074    
    4724.0      0.99075    
    4725.0      0.99076    
    4726.0      0.99076    
    4727.0      0.99077    
    4728.0      0.99077    
    4729.0      0.99078    
    4730.0      0.99078    
    4731.0      0.99079    
    4732.0      0.99080    
    4733.0      0.99080    
    4734.0      0.99081    
    4735.0      0.99081    
    4736.0      0.99082    
    4737.0      0.99083    
    4738.0      0.99083    
    4739.0      0.99084    
    4740.0      0.99084    
    4741.0      0.99085    
    4742.0      0.99086    
    4743.0      0.99086    
    4744.0      0.99087    
    4745.0      0.99087    
    4746.0      0.99088    
    4747.0      0.99088    
    4748.0      0.99089    
    4749.0      0.99090    
    4750.0      0.99090    
    4751.0      0.99091    
    4752.0      0.99091    
    4753.0      0.99092    
    4754.0      0.99093    
    4755.0      0.99093    
    4756.0      0.99094    
    4757.0      0.99094    
    4758.0      0.99095    
    4759.0      0.99095    
    4760.0      0.99096    
    4761.0      0.99097    
    4762.0      0.99097    
    4763.0      0.99098    
    4764.0      0.99098    
    4765.0      0.99099    
    4766.0      0.99100    
    4767.0      0.99100    
    4768.0      0.99101    
    4769.0      0.99101    
    4770.0      0.99102    
    4771.0      0.99102    
    4772.0      0.99103    
    4773.0      0.99104    
    4774.0      0.99104    
    4775.0      0.99105    
    4776.0      0.99105    
    4777.0      0.99106    
    4778.0      0.99106    
    4779.0      0.99107    
    4780.0      0.99108    
    4781.0      0.99108    
    4782.0      0.99109    
    4783.0      0.99109    
    4784.0      0.99110    
    4785.0      0.99110    
    4786.0      0.99111    
    4787.0      0.99111    
    4788.0      0.99112    
    4789.0      0.99113    
    4790.0      0.99113    
    4791.0      0.99114    
    4792.0      0.99114    
    4793.0      0.99115    
    4794.0      0.99115    
    4795.0      0.99116    
    4796.0      0.99117    
    4797.0      0.99117    
    4798.0      0.99118    
    4799.0      0.99118    
    4800.0      0.99119    
    4801.0      0.99119    
    4802.0      0.99120    
    4803.0      0.99120    
    4804.0      0.99121    
    4805.0      0.99122    
    4806.0      0.99122    
    4807.0      0.99123    
    4808.0      0.99123    
    4809.0      0.99124    
    4810.0      0.99124    
    4811.0      0.99125    
    4812.0      0.99125    
    4813.0      0.99126    
    4814.0      0.99127    
    4815.0      0.99127    
    4816.0      0.99128    
    4817.0      0.99128    
    4818.0      0.99129    
    4819.0      0.99129    
    4820.0      0.99130    
    4821.0      0.99130    
    4822.0      0.99131    
    4823.0      0.99132    
    4824.0      0.99132    
    4825.0      0.99133    
    4826.0      0.99133    
    4827.0      0.99134    
    4828.0      0.99134    
    4829.0      0.99135    
    4830.0      0.99135    
    4831.0      0.99136    
    4832.0      0.99136    
    4833.0      0.99137    
    4834.0      0.99138    
    4835.0      0.99138    
    4836.0      0.99139    
    4837.0      0.99139    
    4838.0      0.99140    
    4839.0      0.99140    
    4840.0      0.99141    
    4841.0      0.99141    
    4842.0      0.99142    
    4843.0      0.99142    
    4844.0      0.99143    
    4845.0      0.99144    
    4846.0      0.99144    
    4847.0      0.99145    
    4848.0      0.99145    
    4849.0      0.99146    
    4850.0      0.99146    
    4851.0      0.99147    
    4852.0      0.99147    
    4853.0      0.99148    
    4854.0      0.99148    
    4855.0      0.99149    
    4856.0      0.99149    
    4857.0      0.99150    
    4858.0      0.99150    
    4859.0      0.99151    
    4860.0      0.99152    
    4861.0      0.99152    
    4862.0      0.99153    
    4863.0      0.99153    
    4864.0      0.99154    
    4865.0      0.99154    
    4866.0      0.99155    
    4867.0      0.99155    
    4868.0      0.99156    
    4869.0      0.99156    
    4870.0      0.99157    
    4871.0      0.99157    
    4872.0      0.99158    
    4873.0      0.99158    
    4874.0      0.99159    
    4875.0      0.99159    
    4876.0      0.99160    
    4877.0      0.99161    
    4878.0      0.99161    
    4879.0      0.99162    
    4880.0      0.99162    
    4881.0      0.99163    
    4882.0      0.99163    
    4883.0      0.99164    
    4884.0      0.99164    
    4885.0      0.99165    
    4886.0      0.99165    
    4887.0      0.99166    
    4888.0      0.99166    
    4889.0      0.99167    
    4890.0      0.99167    
    4891.0      0.99168    
    4892.0      0.99168    
    4893.0      0.99169    
    4894.0      0.99169    
    4895.0      0.99170    
    4896.0      0.99170    
    4897.0      0.99171    
    4898.0      0.99171    
    4899.0      0.99172    
    4900.0      0.99172    
    4901.0      0.99173    
    4902.0      0.99173    
    4903.0      0.99174    
    4904.0      0.99175    
    4905.0      0.99175    
    4906.0      0.99176    
    4907.0      0.99176    
    4908.0      0.99177    
    4909.0      0.99177    
    4910.0      0.99178    
    4911.0      0.99178    
    4912.0      0.99179    
    4913.0      0.99179    
    4914.0      0.99180    
    4915.0      0.99180    
    4916.0      0.99181    
    4917.0      0.99181    
    4918.0      0.99182    
    4919.0      0.99182    
    4920.0      0.99183    
    4921.0      0.99183    
    4922.0      0.99184    
    4923.0      0.99184    
    4924.0      0.99185    
    4925.0      0.99185    
    4926.0      0.99186    
    4927.0      0.99186    
    4928.0      0.99187    
    4929.0      0.99187    
    4930.0      0.99188    
    4931.0      0.99188    
    4932.0      0.99189    
    4933.0      0.99189    
    4934.0      0.99190    
    4935.0      0.99190    
    4936.0      0.99191    
    4937.0      0.99191    
    4938.0      0.99192    
    4939.0      0.99192    
    4940.0      0.99193    
    4941.0      0.99193    
    4942.0      0.99194    
    4943.0      0.99194    
    4944.0      0.99195    
    4945.0      0.99195    
    4946.0      0.99196    
    4947.0      0.99196    
    4948.0      0.99197    
    4949.0      0.99197    
    4950.0      0.99198    
    4951.0      0.99198    
    4952.0      0.99199    
    4953.0      0.99199    
    4954.0      0.99200    
    4955.0      0.99200    
    4956.0      0.99201    
    4957.0      0.99201    
    4958.0      0.99202    
    4959.0      0.99202    
    4960.0      0.99203    
    4961.0      0.99203    
    4962.0      0.99204    
    4963.0      0.99204    
    4964.0      0.99205    
    4965.0      0.99205    
    4966.0      0.99206    
    4967.0      0.99206    
    4968.0      0.99207    
    4969.0      0.99207    
    4970.0      0.99208    
    4971.0      0.99208    
    4972.0      0.99208    
    4973.0      0.99209    
    4974.0      0.99209    
    4975.0      0.99210    
    4976.0      0.99210    
    4977.0      0.99211    
    4978.0      0.99211    
    4979.0      0.99212    
    4980.0      0.99212    
    4981.0      0.99213    
    4982.0      0.99213    
    4983.0      0.99214    
    4984.0      0.99214    
    4985.0      0.99215    
    4986.0      0.99215    
    4987.0      0.99216    
    4988.0      0.99216    
    4989.0      0.99217    
    4990.0      0.99217    
    4991.0      0.99218    
    4992.0      0.99218    
    4993.0      0.99219    
    4994.0      0.99219    
    4995.0      0.99220    
    4996.0      0.99220    
    4997.0      0.99221    
    4998.0      0.99221    
    4999.0      0.99221    
    5000.0      0.99222 
    5005.0      0.99224    
    5010.0      0.99227    
    5015.0      0.99229    
    5020.0      0.99231    
    5025.0      0.99234    
    5030.0      0.99236    
    5035.0      0.99238    
    5040.0      0.99241    
    5045.0      0.99243    
    5050.0      0.99245    
    5055.0      0.99248    
    5060.0      0.99250    
    5065.0      0.99252    
    5070.0      0.99254    
    5075.0      0.99257    
    5080.0      0.99259    
    5085.0      0.99261    
    5090.0      0.99263    
    5095.0      0.99265    
    5100.0      0.99268    
    5105.0      0.99270    
    5110.0      0.99272    
    5115.0      0.99274    
    5120.0      0.99276    
    5125.0      0.99278    
    5130.0      0.99281    
    5135.0      0.99283    
    5140.0      0.99285    
    5145.0      0.99287    
    5150.0      0.99289    
    5155.0      0.99291    
    5160.0      0.99293    
    5165.0      0.99295    
    5170.0      0.99298    
    5175.0      0.99300    
    5180.0      0.99302    
    5185.0      0.99304    
    5190.0      0.99306    
    5195.0      0.99308    
    5200.0      0.99310    
    5205.0      0.99312    
    5210.0      0.99314    
    5215.0      0.99316    
    5220.0      0.99318    
    5225.0      0.99320    
    5230.0      0.99322    
    5235.0      0.99324    
    5240.0      0.99326    
    5245.0      0.99328    
    5250.0      0.99330    
    5255.0      0.99332    
    5260.0      0.99334    
    5265.0      0.99336    
    5270.0      0.99338    
    5275.0      0.99339    
    5280.0      0.99341    
    5285.0      0.99343    
    5290.0      0.99345    
    5295.0      0.99347    
    5300.0      0.99349    
    5305.0      0.99351    
    5310.0      0.99353    
    5315.0      0.99355    
    5320.0      0.99356    
    5325.0      0.99358    
    5330.0      0.99360    
    5335.0      0.99362    
    5340.0      0.99364    
    5345.0      0.99366    
    5350.0      0.99367    
    5355.0      0.99369    
    5360.0      0.99371    
    5365.0      0.99373    
    5370.0      0.99375    
    5375.0      0.99376    
    5380.0      0.99378    
    5385.0      0.99380    
    5390.0      0.99382    
    5395.0      0.99383    
    5400.0      0.99385    
    5405.0      0.99387    
    5410.0      0.99389    
    5415.0      0.99390    
    5420.0      0.99392    
    5425.0      0.99394    
    5430.0      0.99396    
    5435.0      0.99397    
    5440.0      0.99399    
    5445.0      0.99401    
    5450.0      0.99402    
    5455.0      0.99404    
    5460.0      0.99406    
    5465.0      0.99407    
    5470.0      0.99409    
    5475.0      0.99411    
    5480.0      0.99412    
    5485.0      0.99414    
    5490.0      0.99416    
    5495.0      0.99417    
    5500.0      0.99419    
    5505.0      0.99420    
    5510.0      0.99422    
    5515.0      0.99424    
    5520.0      0.99425    
    5525.0      0.99427    
    5530.0      0.99428    
    5535.0      0.99430    
    5540.0      0.99432    
    5545.0      0.99433    
    5550.0      0.99435    
    5555.0      0.99436    
    5560.0      0.99438    
    5565.0      0.99439    
    5570.0      0.99441    
    5575.0      0.99442    
    5580.0      0.99444    
    5585.0      0.99446    
    5590.0      0.99447    
    5595.0      0.99449    
    5600.0      0.99450    
    5605.0      0.99452    
    5610.0      0.99453    
    5615.0      0.99455    
    5620.0      0.99456    
    5625.0      0.99458    
    5630.0      0.99459    
    5635.0      0.99461    
    5640.0      0.99462    
    5645.0      0.99463    
    5650.0      0.99465    
    5655.0      0.99466    
    5660.0      0.99468    
    5665.0      0.99469    
    5670.0      0.99471    
    5675.0      0.99472    
    5680.0      0.99474    
    5685.0      0.99475    
    5690.0      0.99476    
    5695.0      0.99478    
    5700.0      0.99479    
    5705.0      0.99481    
    5710.0      0.99482    
    5715.0      0.99483    
    5720.0      0.99485    
    5725.0      0.99486    
    5730.0      0.99488    
    5735.0      0.99489    
    5740.0      0.99490    
    5745.0      0.99492    
    5750.0      0.99493    
    5755.0      0.99494    
    5760.0      0.99496    
    5765.0      0.99497    
    5770.0      0.99498    
    5775.0      0.99500    
    5780.0      0.99501    
    5785.0      0.99502    
    5790.0      0.99504    
    5795.0      0.99505    
    5800.0      0.99506    
    5805.0      0.99508    
    5810.0      0.99509    
    5815.0      0.99510    
    5820.0      0.99512    
    5825.0      0.99513    
    5830.0      0.99514    
    5835.0      0.99515    
    5840.0      0.99517    
    5845.0      0.99518    
    5850.0      0.99519    
    5855.0      0.99520    
    5860.0      0.99522    
    5865.0      0.99523    
    5870.0      0.99524    
    5875.0      0.99525    
    5880.0      0.99527    
    5885.0      0.99528    
    5890.0      0.99529    
    5895.0      0.99530    
    5900.0      0.99532    
    5905.0      0.99533    
    5910.0      0.99534    
    5915.0      0.99535    
    5920.0      0.99536    
    5925.0      0.99538    
    5930.0      0.99539    
    5935.0      0.99540    
    5940.0      0.99541    
    5945.0      0.99542    
    5950.0      0.99544    
    5955.0      0.99545    
    5960.0      0.99546    
    5965.0      0.99547    
    5970.0      0.99548    
    5975.0      0.99549    
    5980.0      0.99551    
    5985.0      0.99552    
    5990.0      0.99553    
    5995.0      0.99554    
    6000.0      0.99555    
    6005.0      0.99556    
    6010.0      0.99558    
    6015.0      0.99559    
    6020.0      0.99560    
    6025.0      0.99561    
    6030.0      0.99562    
    6035.0      0.99563    
    6040.0      0.99564    
    6045.0      0.99565    
    6050.0      0.99566    
    6055.0      0.99568    
    6060.0      0.99569    
    6065.0      0.99570    
    6070.0      0.99571    
    6075.0      0.99572    
    6080.0      0.99573    
    6085.0      0.99574    
    6090.0      0.99575    
    6095.0      0.99576    
    6100.0      0.99577    
    6105.0      0.99578    
    6110.0      0.99579    
    6115.0      0.99581    
    6120.0      0.99582    
    6125.0      0.99583    
    6130.0      0.99584    
    6135.0      0.99585    
    6140.0      0.99586    
    6145.0      0.99587    
    6150.0      0.99588    
    6155.0      0.99589    
    6160.0      0.99590    
    6165.0      0.99591    
    6170.0      0.99592    
    6175.0      0.99593    
    6180.0      0.99594    
    6185.0      0.99595    
    6190.0      0.99596    
    6195.0      0.99597    
    6200.0      0.99598    
    6205.0      0.99599    
    6210.0      0.99600    
    6215.0      0.99601    
    6220.0      0.99602    
    6225.0      0.99603    
    6230.0      0.99604    
    6235.0      0.99605    
    6240.0      0.99606    
    6245.0      0.99607    
    6250.0      0.99608    
    6255.0      0.99609    
    6260.0      0.99610    
    6265.0      0.99611    
    6270.0      0.99612    
    6275.0      0.99613    
    6280.0      0.99614    
    6285.0      0.99615    
    6290.0      0.99615    
    6295.0      0.99616    
    6300.0      0.99617    
    6305.0      0.99618    
    6310.0      0.99619    
    6315.0      0.99620    
    6320.0      0.99621    
    6325.0      0.99622    
    6330.0      0.99623    
    6335.0      0.99624    
    6340.0      0.99625    
    6345.0      0.99626    
    6350.0      0.99627    
    6355.0      0.99627    
    6360.0      0.99628    
    6365.0      0.99629    
    6370.0      0.99630    
    6375.0      0.99631    
    6380.0      0.99632    
    6385.0      0.99633    
    6390.0      0.99634    
    6395.0      0.99635    
    6400.0      0.99636    
    6405.0      0.99636    
    6410.0      0.99637    
    6415.0      0.99638    
    6420.0      0.99639    
    6425.0      0.99640    
    6430.0      0.99641    
    6435.0      0.99642    
    6440.0      0.99642    
    6445.0      0.99643    
    6450.0      0.99644    
    6455.0      0.99645    
    6460.0      0.99646    
    6465.0      0.99647    
    6470.0      0.99648    
    6475.0      0.99648    
    6480.0      0.99649    
    6485.0      0.99650    
    6490.0      0.99651    
    6495.0      0.99652    
    6500.0      0.99653    
    6505.0      0.99653    
    6510.0      0.99654    
    6515.0      0.99655    
    6520.0      0.99656    
    6525.0      0.99657    
    6530.0      0.99657    
    6535.0      0.99658    
    6540.0      0.99659    
    6545.0      0.99660    
    6550.0      0.99661    
    6555.0      0.99661    
    6560.0      0.99662    
    6565.0      0.99663    
    6570.0      0.99664    
    6575.0      0.99665    
    6580.0      0.99665    
    6585.0      0.99666    
    6590.0      0.99667    
    6595.0      0.99668    
    6600.0      0.99669    
    6605.0      0.99669    
    6610.0      0.99670    
    6615.0      0.99671    
    6620.0      0.99672    
    6625.0      0.99672    
    6630.0      0.99673    
    6635.0      0.99674    
    6640.0      0.99675    
    6645.0      0.99675    
    6650.0      0.99676    
    6655.0      0.99677    
    6660.0      0.99678    
    6665.0      0.99678    
    6670.0      0.99679    
    6675.0      0.99680    
    6680.0      0.99681    
    6685.0      0.99681    
    6690.0      0.99682    
    6695.0      0.99683    
    6700.0      0.99684    
    6705.0      0.99684    
    6710.0      0.99685    
    6715.0      0.99686    
    6720.0      0.99687    
    6725.0      0.99687    
    6730.0      0.99688    
    6735.0      0.99689    
    6740.0      0.99689    
    6745.0      0.99690    
    6750.0      0.99691    
    6755.0      0.99692    
    6760.0      0.99692    
    6765.0      0.99693    
    6770.0      0.99694    
    6775.0      0.99694    
    6780.0      0.99695    
    6785.0      0.99696    
    6790.0      0.99696    
    6795.0      0.99697    
    6800.0      0.99698    
    6805.0      0.99698    
    6810.0      0.99699    
    6815.0      0.99700    
    6820.0      0.99701    
    6825.0      0.99701    
    6830.0      0.99702    
    6835.0      0.99703    
    6840.0      0.99703    
    6845.0      0.99704    
    6850.0      0.99705    
    6855.0      0.99705    
    6860.0      0.99706    
    6865.0      0.99707    
    6870.0      0.99707    
    6875.0      0.99708    
    6880.0      0.99709    
    6885.0      0.99709    
    6890.0      0.99710    
    6895.0      0.99710    
    6900.0      0.99711    
    6905.0      0.99712    
    6910.0      0.99712    
    6915.0      0.99713    
    6920.0      0.99714    
    6925.0      0.99714    
    6930.0      0.99715    
    6935.0      0.99716    
    6940.0      0.99716    
    6945.0      0.99717    
    6950.0      0.99718    
    6955.0      0.99718    
    6960.0      0.99719    
    6965.0      0.99719    
    6970.0      0.99720    
    6975.0      0.99721    
    6980.0      0.99721    
    6985.0      0.99722    
    6990.0      0.99722    
    6995.0      0.99723    
    7000.0      0.99724    
    7005.0      0.99724    
    7010.0      0.99725    
    7015.0      0.99726    
    7020.0      0.99726    
    7025.0      0.99727    
    7030.0      0.99727    
    7035.0      0.99728    
    7040.0      0.99729    
    7045.0      0.99729    
    7050.0      0.99730    
    7055.0      0.99730    
    7060.0      0.99731    
    7065.0      0.99731    
    7070.0      0.99732    
    7075.0      0.99733    
    7080.0      0.99733    
    7085.0      0.99734    
    7090.0      0.99734    
    7095.0      0.99735    
    7100.0      0.99736    
    7105.0      0.99736    
    7110.0      0.99737    
    7115.0      0.99737    
    7120.0      0.99738    
    7125.0      0.99738    
    7130.0      0.99739    
    7135.0      0.99740    
    7140.0      0.99740    
    7145.0      0.99741    
    7150.0      0.99741    
    7155.0      0.99742    
    7160.0      0.99742    
    7165.0      0.99743    
    7170.0      0.99743    
    7175.0      0.99744    
    7180.0      0.99745    
    7185.0      0.99745    
    7190.0      0.99746    
    7195.0      0.99746    
    7200.0      0.99747    
    7205.0      0.99747    
    7210.0      0.99748    
    7215.0      0.99748    
    7220.0      0.99749    
    7225.0      0.99749    
    7230.0      0.99750    
    7235.0      0.99751    
    7240.0      0.99751    
    7245.0      0.99752    
    7250.0      0.99752    
    7255.0      0.99753    
    7260.0      0.99753    
    7265.0      0.99754    
    7270.0      0.99754    
    7275.0      0.99755    
    7280.0      0.99755    
    7285.0      0.99756    
    7290.0      0.99756    
    7295.0      0.99757    
    7300.0      0.99757    
    7305.0      0.99758    
    7310.0      0.99758    
    7315.0      0.99759    
    7320.0      0.99759    
    7325.0      0.99760    
    7330.0      0.99760    
    7335.0      0.99761    
    7340.0      0.99761    
    7345.0      0.99762    
    7350.0      0.99762    
    7355.0      0.99763    
    7360.0      0.99763    
    7365.0      0.99764    
    7370.0      0.99764    
    7375.0      0.99765    
    7380.0      0.99765    
    7385.0      0.99766    
    7390.0      0.99766    
    7395.0      0.99767    
    7400.0      0.99767    
    7405.0      0.99768    
    7410.0      0.99768    
    7415.0      0.99769    
    7420.0      0.99769    
    7425.0      0.99770    
    7430.0      0.99770    
    7435.0      0.99771    
    7440.0      0.99771    
    7445.0      0.99772    
    7450.0      0.99772    
    7455.0      0.99773    
    7460.0      0.99773    
    7465.0      0.99774    
    7470.0      0.99774    
    7475.0      0.99775    
    7480.0      0.99775    
    7485.0      0.99775    
    7490.0      0.99776    
    7495.0      0.99776    
    7500.0      0.99777    
    7505.0      0.99777    
    7510.0      0.99778    
    7515.0      0.99778    
    7520.0      0.99779    
    7525.0      0.99779    
    7530.0      0.99780    
    7535.0      0.99780    
    7540.0      0.99780    
    7545.0      0.99781    
    7550.0      0.99781    
    7555.0      0.99782    
    7560.0      0.99782    
    7565.0      0.99783    
    7570.0      0.99783    
    7575.0      0.99784    
    7580.0      0.99784    
    7585.0      0.99784    
    7590.0      0.99785    
    7595.0      0.99785    
    7600.0      0.99786    
    7605.0      0.99786    
    7610.0      0.99787    
    7615.0      0.99787    
    7620.0      0.99788    
    7625.0      0.99788    
    7630.0      0.99788    
    7635.0      0.99789    
    7640.0      0.99789    
    7645.0      0.99790    
    7650.0      0.99790    
    7655.0      0.99791    
    7660.0      0.99791    
    7665.0      0.99791    
    7670.0      0.99792    
    7675.0      0.99792    
    7680.0      0.99793    
    7685.0      0.99793    
    7690.0      0.99793    
    7695.0      0.99794    
    7700.0      0.99794    
    7705.0      0.99795    
    7710.0      0.99795    
    7715.0      0.99796    
    7720.0      0.99796    
    7725.0      0.99796    
    7730.0      0.99797    
    7735.0      0.99797    
    7740.0      0.99798    
    7745.0      0.99798    
    7750.0      0.99798    
    7755.0      0.99799    
    7760.0      0.99799    
    7765.0      0.99800    
    7770.0      0.99800    
    7775.0      0.99800    
    7780.0      0.99801    
    7785.0      0.99801    
    7790.0      0.99802    
    7795.0      0.99802    
    7800.0      0.99802    
    7805.0      0.99803    
    7810.0      0.99803    
    7815.0      0.99804    
    7820.0      0.99804    
    7825.0      0.99804    
    7830.0      0.99805    
    7835.0      0.99805    
    7840.0      0.99805    
    7845.0      0.99806    
    7850.0      0.99806    
    7855.0      0.99807    
    7860.0      0.99807    
    7865.0      0.99807    
    7870.0      0.99808    
    7875.0      0.99808    
    7880.0      0.99809    
    7885.0      0.99809    
    7890.0      0.99809    
    7895.0      0.99810    
    7900.0      0.99810    
    7905.0      0.99810    
    7910.0      0.99811    
    7915.0      0.99811    
    7920.0      0.99811    
    7925.0      0.99812    
    7930.0      0.99812    
    7935.0      0.99813    
    7940.0      0.99813    
    7945.0      0.99813    
    7950.0      0.99814    
    7955.0      0.99814    
    7960.0      0.99814    
    7965.0      0.99815    
    7970.0      0.99815    
    7975.0      0.99815    
    7980.0      0.99816    
    7985.0      0.99816    
    7990.0      0.99817    
    7995.0      0.99817    
    8000.0      0.99817    
    8005.0      0.99818    
    8010.0      0.99818    
    8015.0      0.99818    
    8020.0      0.99819    
    8025.0      0.99819    
    8030.0      0.99819    
    8035.0      0.99820    
    8040.0      0.99820    
    8045.0      0.99820    
    8050.0      0.99821    
    8055.0      0.99821    
    8060.0      0.99821    
    8065.0      0.99822    
    8070.0      0.99822    
    8075.0      0.99822    
    8080.0      0.99823    
    8085.0      0.99823    
    8090.0      0.99823    
    8095.0      0.99824    
    8100.0      0.99824    
    8105.0      0.99824    
    8110.0      0.99825    
    8115.0      0.99825    
    8120.0      0.99825    
    8125.0      0.99826    
    8130.0      0.99826    
    8135.0      0.99826    
    8140.0      0.99827    
    8145.0      0.99827    
    8150.0      0.99827    
    8155.0      0.99828    
    8160.0      0.99828    
    8165.0      0.99828    
    8170.0      0.99829    
    8175.0      0.99829    
    8180.0      0.99829    
    8185.0      0.99830    
    8190.0      0.99830    
    8195.0      0.99830    
    8200.0      0.99831    
    8205.0      0.99831    
    8210.0      0.99831    
    8215.0      0.99832    
    8220.0      0.99832    
    8225.0      0.99832    
    8230.0      0.99833    
    8235.0      0.99833    
    8240.0      0.99833    
    8245.0      0.99834    
    8250.0      0.99834    
    8255.0      0.99834    
    8260.0      0.99834    
    8265.0      0.99835    
    8270.0      0.99835    
    8275.0      0.99835    
    8280.0      0.99836    
    8285.0      0.99836    
    8290.0      0.99836    
    8295.0      0.99837    
    8300.0      0.99837    
    8305.0      0.99837    
    8310.0      0.99838    
    8315.0      0.99838    
    8320.0      0.99838    
    8325.0      0.99838    
    8330.0      0.99839    
    8335.0      0.99839    
    8340.0      0.99839    
    8345.0      0.99840    
    8350.0      0.99840    
    8355.0      0.99840    
    8360.0      0.99841    
    8365.0      0.99841    
    8370.0      0.99841    
    8375.0      0.99841    
    8380.0      0.99842    
    8385.0      0.99842    
    8390.0      0.99842    
    8395.0      0.99843    
    8400.0      0.99843    
    8405.0      0.99843    
    8410.0      0.99843    
    8415.0      0.99844    
    8420.0      0.99844    
    8425.0      0.99844    
    8430.0      0.99845    
    8435.0      0.99845    
    8440.0      0.99845    
    8445.0      0.99845    
    8450.0      0.99846    
    8455.0      0.99846    
    8460.0      0.99846    
    8465.0      0.99847    
    8470.0      0.99847    
    8475.0      0.99847    
    8480.0      0.99847    
    8485.0      0.99848    
    8490.0      0.99848    
    8495.0      0.99848    
    8500.0      0.99849    
    8505.0      0.99849    
    8510.0      0.99849    
    8515.0      0.99849    
    8520.0      0.99850    
    8525.0      0.99850    
    8530.0      0.99850    
    8535.0      0.99850    
    8540.0      0.99851    
    8545.0      0.99851    
    8550.0      0.99851    
    8555.0      0.99852    
    8560.0      0.99852    
    8565.0      0.99852    
    8570.0      0.99852    
    8575.0      0.99853    
    8580.0      0.99853    
    8585.0      0.99853    
    8590.0      0.99853    
    8595.0      0.99854    
    8600.0      0.99854    
    8605.0      0.99854    
    8610.0      0.99854    
    8615.0      0.99855    
    8620.0      0.99855    
    8625.0      0.99855    
    8630.0      0.99855    
    8635.0      0.99856    
    8640.0      0.99856    
    8645.0      0.99856    
    8650.0      0.99857    
    8655.0      0.99857    
    8660.0      0.99857    
    8665.0      0.99857    
    8670.0      0.99858    
    8675.0      0.99858    
    8680.0      0.99858    
    8685.0      0.99858    
    8690.0      0.99859    
    8695.0      0.99859    
    8700.0      0.99859    
    8705.0      0.99859    
    8710.0      0.99860    
    8715.0      0.99860    
    8720.0      0.99860    
    8725.0      0.99860    
    8730.0      0.99861    
    8735.0      0.99861    
    8740.0      0.99861    
    8745.0      0.99861    
    8750.0      0.99862    
    8755.0      0.99862    
    8760.0      0.99862    
    8765.0      0.99862    
    8770.0      0.99862    
    8775.0      0.99863    
    8780.0      0.99863    
    8785.0      0.99863    
    8790.0      0.99863    
    8795.0      0.99864    
    8800.0      0.99864    
    8805.0      0.99864    
    8810.0      0.99864    
    8815.0      0.99865    
    8820.0      0.99865    
    8825.0      0.99865    
    8830.0      0.99865    
    8835.0      0.99866    
    8840.0      0.99866    
    8845.0      0.99866    
    8850.0      0.99866    
    8855.0      0.99867    
    8860.0      0.99867    
    8865.0      0.99867    
    8870.0      0.99867    
    8875.0      0.99867    
    8880.0      0.99868    
    8885.0      0.99868    
    8890.0      0.99868    
    8895.0      0.99868    
    8900.0      0.99869    
    8905.0      0.99869    
    8910.0      0.99869    
    8915.0      0.99869    
    8920.0      0.99870    
    8925.0      0.99870    
    8930.0      0.99870    
    8935.0      0.99870    
    8940.0      0.99870    
    8945.0      0.99871    
    8950.0      0.99871    
    8955.0      0.99871    
    8960.0      0.99871    
    8965.0      0.99872    
    8970.0      0.99872    
    8975.0      0.99872    
    8980.0      0.99872    
    8985.0      0.99872    
    8990.0      0.99873    
    8995.0      0.99873    
    9000.0      0.99873    
    9005.0      0.99873    
    9010.0      0.99873    
    9015.0      0.99874    
    9020.0      0.99874    
    9025.0      0.99874    
    9030.0      0.99874    
    9035.0      0.99875    
    9040.0      0.99875    
    9045.0      0.99875    
    9050.0      0.99875    
    9055.0      0.99875    
    9060.0      0.99876    
    9065.0      0.99876    
    9070.0      0.99876    
    9075.0      0.99876    
    9080.0      0.99876    
    9085.0      0.99877    
    9090.0      0.99877    
    9095.0      0.99877    
    9100.0      0.99877    
    9105.0      0.99878    
    9110.0      0.99878    
    9115.0      0.99878    
    9120.0      0.99878    
    9125.0      0.99878    
    9130.0      0.99879    
    9135.0      0.99879    
    9140.0      0.99879    
    9145.0      0.99879    
    9150.0      0.99879    
    9155.0      0.99880    
    9160.0      0.99880    
    9165.0      0.99880    
    9170.0      0.99880    
    9175.0      0.99880    
    9180.0      0.99881    
    9185.0      0.99881    
    9190.0      0.99881    
    9195.0      0.99881    
    9200.0      0.99881    
    9205.0      0.99882    
    9210.0      0.99882    
    9215.0      0.99882    
    9220.0      0.99882    
    9225.0      0.99882    
    9230.0      0.99883    
    9235.0      0.99883    
    9240.0      0.99883    
    9245.0      0.99883    
    9250.0      0.99883    
    9255.0      0.99884    
    9260.0      0.99884    
    9265.0      0.99884    
    9270.0      0.99884    
    9275.0      0.99884    
    9280.0      0.99884    
    9285.0      0.99885    
    9290.0      0.99885    
    9295.0      0.99885    
    9300.0      0.99885    
    9305.0      0.99885    
    9310.0      0.99886    
    9315.0      0.99886    
    9320.0      0.99886    
    9325.0      0.99886    
    9330.0      0.99886    
    9335.0      0.99887    
    9340.0      0.99887    
    9345.0      0.99887    
    9350.0      0.99887    
    9355.0      0.99887    
    9360.0      0.99888    
    9365.0      0.99888    
    9370.0      0.99888    
    9375.0      0.99888    
    9380.0      0.99888    
    9385.0      0.99888    
    9390.0      0.99889    
    9395.0      0.99889    
    9400.0      0.99889    
    9405.0      0.99889    
    9410.0      0.99889    
    9415.0      0.99890    
    9420.0      0.99890    
    9425.0      0.99890    
    9430.0      0.99890    
    9435.0      0.99890    
    9440.0      0.99890    
    9445.0      0.99891    
    9450.0      0.99891    
    9455.0      0.99891    
    9460.0      0.99891    
    9465.0      0.99891    
    9470.0      0.99891    
    9475.0      0.99892    
    9480.0      0.99892    
    9485.0      0.99892    
    9490.0      0.99892    
    9495.0      0.99892    
    9500.0      0.99893    
    9505.0      0.99893    
    9510.0      0.99893    
    9515.0      0.99893    
    9520.0      0.99893    
    9525.0      0.99893    
    9530.0      0.99894    
    9535.0      0.99894    
    9540.0      0.99894    
    9545.0      0.99894    
    9550.0      0.99894    
    9555.0      0.99894    
    9560.0      0.99895    
    9565.0      0.99895    
    9570.0      0.99895    
    9575.0      0.99895    
    9580.0      0.99895    
    9585.0      0.99895    
    9590.0      0.99896    
    9595.0      0.99896    
    9600.0      0.99896    
    9605.0      0.99896    
    9610.0      0.99896    
    9615.0      0.99896    
    9620.0      0.99897    
    9625.0      0.99897    
    9630.0      0.99897    
    9635.0      0.99897    
    9640.0      0.99897    
    9645.0      0.99897    
    9650.0      0.99898    
    9655.0      0.99898    
    9660.0      0.99898    
    9665.0      0.99898    
    9670.0      0.99898    
    9675.0      0.99898    
    9680.0      0.99899    
    9685.0      0.99899    
    9690.0      0.99899    
    9695.0      0.99899    
    9700.0      0.99899    
    9705.0      0.99899    
    9710.0      0.99900    
    9715.0      0.99900    
    9720.0      0.99900    
    9725.0      0.99900    
    9730.0      0.99900    
    9735.0      0.99900    
    9740.0      0.99900    
    9745.0      0.99901    
    9750.0      0.99901    
    9755.0      0.99901    
    9760.0      0.99901    
    9765.0      0.99901    
    9770.0      0.99901    
    9775.0      0.99902    
    9780.0      0.99902    
    9785.0      0.99902    
    9790.0      0.99902    
    9795.0      0.99902    
    9800.0      0.99902    
    9805.0      0.99902    
    9810.0      0.99903    
    9815.0      0.99903    
    9820.0      0.99903    
    9825.0      0.99903    
    9830.0      0.99903    
    9835.0      0.99903    
    9840.0      0.99904    
    9845.0      0.99904    
    9850.0      0.99904    
    9855.0      0.99904    
    9860.0      0.99904    
    9865.0      0.99904    
    9870.0      0.99904    
    9875.0      0.99905    
    9880.0      0.99905    
    9885.0      0.99905    
    9890.0      0.99905    
    9895.0      0.99905    
    9900.0      0.99905    
    9905.0      0.99905    
    9910.0      0.99906    
    9915.0      0.99906    
    9920.0      0.99906    
    9925.0      0.99906    
    9930.0      0.99906    
    9935.0      0.99906    
    9940.0      0.99906    
    9945.0      0.99907    
    9950.0      0.99907    
    9955.0      0.99907    
    9960.0      0.99907    
    9965.0      0.99907    
    9970.0      0.99907    
    9975.0      0.99907    
    9980.0      0.99908    
    9985.0      0.99908    
    9990.0      0.99908    
    9995.0      0.99908    
    10000.      0.99908       
